DTS Sentinel unit serial number:	SN413079Multiplexer serial number:	ORYXHardware model number:	OX4-SRSoftware version number:	ORYX F/W v4.00 Oryx Data Collector v3.7.2.0data status	okinstallation	princeton_trtdifferential loss correction	single-endedforward channel	channel 1reverse channel	N/Adate	2019/10/01time	00:02:35forward acquisition time	60.00reverse acquisition time	0.00gamma	496.2192k internal	0.2334k external	0.2334temperature offset calibration	0.9902default loss term (dB/km)	0.3790temperature slope calibration	1.0000multiplexer offset coefficient	1.0000multiplexer slope coefficient	1.0000fibre end	0.00T internal ref (°C)	27.12T ext. ref 1 (°C)	4.06T ext. ref 2 (°C)	21.07length (m)	temperature (°C)	Stokes	anti-Stokes-747.200	31.471	-0.113	-0.098
-746.185	-19.755	-0.300	0.187
-745.171	-107.758	-0.090	0.020
-744.156	136.141	-0.064	0.083
-743.142	-10.086	-0.093	0.062
-742.127	-45.307	0.098	0.049
-741.112	-119.171	-0.166	-0.029
-740.098	-20.683	0.259	0.160
-739.083	-57.502	0.301	-0.133
-738.069	214.273	0.097	-0.155
-737.054	-39.206	-0.183	0.097
-736.039	800.000	-0.042	-0.139
-735.025	65.634	0.183	0.186
-734.010	-53.665	0.140	0.064
-732.996	-149.560	-0.169	0.013
-731.981	-116.872	-0.202	-0.037
-730.966	800.000	-0.050	0.221
-729.952	-200.000	-0.029	0.431
-728.937	-200.000	0.014	0.220
-727.923	271.849	0.217	-0.384
-726.908	427.058	-0.135	0.293
-725.894	-200.000	-0.042	0.217
-724.879	800.000	0.059	0.243
-723.864	-177.253	-0.273	-0.007
-722.850	44.963	-0.211	-0.195
-721.835	-11.370	-0.098	-0.065
-720.821	101.725	-0.173	0.202
-719.806	-200.000	-0.020	0.326
-718.791	-33.493	-0.252	-0.140
-717.777	-42.711	-0.275	0.140
-716.762	92.687	-0.203	-0.230
-715.748	800.000	0.036	0.133
-714.733	352.067	-0.097	0.192
-713.718	139.833	0.074	-0.097
-712.704	133.049	-0.224	0.291
-711.689	-200.000	0.004	0.098
-710.675	-62.783	0.202	0.084
-709.660	-161.907	-0.041	0.002
-708.645	-200.000	-0.070	-0.316
-707.631	70.193	-0.339	-0.351
-706.616	-107.550	0.077	-0.017
-705.602	-114.483	-0.281	0.054
-704.587	3.009	0.081	-0.059
-703.572	69.086	-0.145	0.150
-702.558	-94.635	0.211	-0.058
-701.543	-13.859	0.130	0.084
-700.529	320.317	-0.118	-0.225
-699.514	-200.000	-0.005	-0.173
-698.499	-200.000	-0.016	0.165
-697.485	110.164	0.259	0.312
-696.470	-24.919	0.049	0.029
-695.456	7.049	0.305	0.228
-694.441	-64.913	-0.186	0.075
-693.426	45.768	-0.224	-0.208
-692.412	111.492	-0.254	-0.307
-691.397	800.000	-0.014	-0.042
-690.383	-139.793	0.277	-0.029
-689.368	800.000	-0.117	-0.471
-688.354	-57.526	-0.488	-0.215
-687.339	39.349	0.087	0.078
-686.324	-200.000	-0.028	0.305
-685.310	-141.497	-0.089	-0.009
-684.295	196.266	0.054	-0.083
-683.281	-161.531	-0.279	-0.014
-682.266	764.401	-0.091	-0.249
-681.251	-87.844	-0.084	-0.026
-680.237	800.000	0.018	0.063
-679.222	87.742	-0.231	-0.257
-678.208	-90.687	-0.030	-0.009
-677.193	-200.000	0.006	-0.132
-676.178	32.408	-0.239	-0.207
-675.164	800.000	-0.046	-0.173
-674.149	-56.431	-0.486	-0.216
-673.135	255.529	0.149	0.255
-672.120	-32.091	-0.269	0.151
-671.105	90.256	-0.397	-0.445
-670.091	439.013	0.103	-0.226
-669.076	-30.279	0.417	-0.237
-668.062	-21.421	-0.454	-0.278
-667.047	-200.000	0.022	-0.179
-666.032	-200.000	0.002	0.219
-665.018	-200.000	-0.030	0.189
-664.003	-200.000	-0.001	-0.168
-662.989	-174.208	-0.276	0.008
-661.974	-145.791	-0.242	-0.022
-660.959	-39.280	-0.376	0.198
-659.945	-75.330	-0.215	-0.077
-658.930	16.405	-0.262	0.207
-657.916	-2.872	-0.045	0.031
-656.901	77.287	0.266	-0.284
-655.886	-37.016	-0.193	-0.104
-654.872	67.823	-0.145	-0.149
-653.857	365.454	0.108	0.219
-652.843	-76.410	-0.524	-0.185
-651.828	-50.611	-0.104	0.049
-650.814	-156.861	-0.168	-0.010
-649.799	100.177	-0.166	-0.192
-648.784	58.440	-0.103	0.101
-647.770	800.000	0.045	-0.190
-646.755	238.602	0.200	-0.333
-645.741	162.130	-0.058	-0.082
-644.726	31.884	0.127	-0.110
-643.711	275.057	-0.017	-0.029
-642.697	-200.000	0.029	0.259
-641.682	-31.448	0.071	-0.040
-640.668	-22.558	0.193	-0.117
-639.653	-90.120	0.282	-0.082
-638.638	800.000	-0.037	-0.119
-637.624	-169.489	0.156	-0.006
-636.609	-200.000	0.009	0.144
-635.595	450.774	-0.088	-0.195
-634.580	-93.323	0.052	-0.014
-633.565	-86.889	-0.159	0.049
-632.551	-38.509	-0.209	0.111
-631.536	-118.934	0.234	-0.041
-630.522	443.047	-0.128	-0.280
-629.507	-135.828	-0.297	-0.035
-628.492	471.380	0.019	-0.042
-627.478	-70.514	-0.092	0.035
-626.463	100.369	0.051	-0.059
-625.449	-167.515	-0.143	-0.006
-624.434	-86.052	-0.040	0.012
-623.419	-37.163	0.234	0.125
-622.405	-113.870	-0.298	0.058
-621.390	151.210	0.225	0.307
-620.376	27.856	-0.300	0.253
-619.361	-200.000	0.026	0.206
-618.346	-200.000	-0.016	0.147
-617.332	218.714	-0.123	-0.197
-616.317	95.504	0.383	0.437
-615.303	441.466	0.173	0.379
-614.288	-65.940	0.255	-0.102
-613.273	-143.669	-0.204	-0.019
-612.259	-40.564	-0.076	-0.040
-611.244	-105.290	0.192	-0.044
-610.230	-65.042	0.374	-0.151
-609.215	-45.674	-0.210	-0.104
-608.201	800.000	-0.016	-0.055
-607.186	-200.000	0.022	0.125
-606.171	-200.000	-0.048	-0.258
-605.157	800.000	0.044	0.159
-604.142	-18.958	0.041	-0.025
-603.128	206.847	-0.123	-0.192
-602.113	800.000	0.012	-0.044
-601.098	-18.778	0.330	-0.205
-600.084	20.159	-0.056	0.045
-599.069	-200.000	0.012	-0.453
-598.055	591.350	0.061	0.151
-597.040	377.413	-0.049	-0.100
-596.025	252.688	-0.083	-0.142
-595.011	796.267	0.070	0.192
-593.996	-60.222	0.172	-0.073
-592.982	-150.887	-0.184	0.014
-591.967	-200.000	0.066	-0.373
-590.952	-119.413	-0.162	-0.028
-589.938	432.036	-0.066	0.143
-588.923	415.555	-0.008	-0.017
-587.909	294.533	0.072	-0.132
-586.894	-171.310	0.232	-0.008
-585.879	172.600	0.099	-0.142
-584.865	137.761	-0.053	-0.069
-583.850	183.427	0.147	0.217
-582.836	100.050	-0.104	0.120
-581.821	-200.000	0.042	0.245
-580.806	115.383	-0.226	0.276
-579.792	239.713	-0.065	-0.107
-578.777	-111.607	0.175	-0.035
-577.763	-59.396	-0.131	-0.056
-576.748	-96.007	-0.269	-0.072
-575.733	153.244	0.197	0.270
-574.719	417.230	0.015	-0.031
-573.704	178.530	-0.095	0.139
-572.690	-200.000	-0.037	-0.271
-571.675	368.391	-0.085	0.171
-570.661	-147.798	0.164	-0.014
-569.646	153.874	-0.138	-0.189
-568.631	39.646	0.230	-0.206
-567.617	-78.429	-0.102	0.035
-566.602	20.157	-0.259	-0.208
-565.588	-200.000	-0.009	-0.136
-564.573	172.587	-0.197	-0.283
-563.558	-94.449	-0.211	-0.057
-562.544	105.680	-0.135	-0.160
-561.529	-200.000	-0.062	-0.346
-560.515	-91.309	-0.517	-0.148
-559.500	22.224	-0.152	0.124
-558.485	-200.000	0.001	-0.167
-557.471	800.000	0.062	-0.226
-556.456	56.026	-0.266	0.257
-555.442	-76.945	0.132	-0.046
-554.427	-200.000	-0.017	0.224
-553.412	800.000	-0.102	-0.394
-552.398	-77.770	-0.168	-0.058
-551.383	65.327	0.181	-0.183
-550.369	67.974	0.171	-0.174
-549.354	-42.913	-0.085	-0.043
-548.339	-200.000	0.018	0.218
-547.325	479.946	-0.107	-0.242
-546.310	88.674	0.212	0.235
-545.296	303.491	-0.100	0.185
-544.281	-200.000	0.047	-0.349
-543.266	86.109	0.073	-0.080
-542.252	74.278	0.168	-0.175
-541.237	-15.450	-0.206	0.131
-540.223	341.260	-0.101	0.196
-539.208	-83.253	0.343	0.110
-538.193	-4.971	0.157	-0.108
-537.179	-25.145	0.130	0.077
-536.164	-54.926	-0.288	-0.129
-535.150	388.397	0.095	-0.195
-534.135	800.000	0.113	-0.337
-533.121	-170.847	0.535	0.018
-532.106	-33.918	-0.127	-0.070
-531.091	358.535	0.095	-0.189
-530.077	-165.793	-0.126	-0.005
-529.062	-100.343	0.099	-0.024
-528.048	-65.945	-0.182	0.072
-527.033	800.000	-0.077	0.320
-526.018	-19.964	-0.037	0.023
-525.004	100.380	0.127	-0.147
-523.989	-53.878	-0.374	0.170
-522.975	89.029	0.192	0.213
-521.960	4.738	0.175	0.128
-520.945	258.192	-0.184	0.315
-519.931	-200.000	0.021	0.224
-518.916	470.766	-0.079	0.176
-517.902	-133.084	-0.454	-0.057
-516.887	-200.000	0.386	-0.000
-515.872	23.631	-0.275	-0.225
-514.858	-143.929	0.161	-0.015
-513.843	407.026	0.139	0.293
-512.829	-153.729	-0.193	0.013
-511.814	-129.169	0.166	-0.023
-510.799	-200.000	0.045	-0.283
-509.785	-33.691	-0.356	-0.196
-508.770	712.044	-0.088	-0.233
-507.756	23.920	0.161	-0.132
-506.741	-1.371	-0.216	-0.152
-505.726	-10.909	0.160	0.105
-504.712	800.000	0.048	0.134
-503.697	-149.323	0.122	-0.010
-502.683	229.157	-0.178	0.289
-501.668	-107.703	-0.230	-0.050
-500.653	-98.594	0.043	0.011
-499.639	105.421	0.037	0.043
-498.624	-140.852	0.194	-0.020
-497.610	-200.000	0.063	-0.298
-496.595	-82.765	0.079	0.026
-495.581	-200.000	-0.001	-0.150
-494.566	30.427	-0.268	-0.228
-493.551	800.000	0.118	0.376
-492.537	-90.296	-0.015	0.004
-491.522	-148.874	0.342	0.028
-490.508	-132.523	-0.228	-0.029
-489.493	-200.000	-0.028	-0.157
-488.478	-13.667	-0.145	-0.094
-487.464	171.099	-0.104	0.149
-486.449	435.604	-0.166	-0.359
-485.435	107.815	0.301	-0.357
-484.420	11.033	-0.205	-0.156
-483.405	-64.717	0.262	0.106
-482.391	-200.000	-0.036	0.176
-481.376	62.150	0.124	-0.123
-480.362	3.490	-0.360	-0.261
-479.347	780.530	0.094	-0.257
-478.332	-164.773	0.239	0.011
-477.318	449.560	-0.051	0.113
-476.303	23.111	-0.286	0.234
-475.289	-200.000	0.028	-0.146
-474.274	370.222	-0.045	0.090
-473.259	-200.000	-0.051	0.245
-472.245	83.425	0.146	0.158
-471.230	236.977	-0.109	0.180
-470.216	800.000	0.022	0.087
-469.201	-25.089	0.274	-0.161
-468.186	-38.656	-0.324	-0.170
-467.172	129.068	0.103	-0.130
-466.157	-109.755	-0.113	0.024
-465.143	-130.137	-0.048	-0.006
-464.128	-179.096	-0.385	-0.009
-463.113	-200.000	-0.017	0.242
-462.099	132.976	-0.226	0.290
-461.084	800.000	-0.013	0.036
-460.070	-154.254	-0.188	-0.013
-459.055	800.000	0.020	0.064
-458.040	-16.263	0.198	0.125
-457.026	800.000	0.080	-0.285
-456.011	-200.000	0.011	0.172
-454.997	-200.000	0.001	-0.319
-453.982	259.030	0.238	0.408
-452.968	-117.659	-0.240	0.043
-451.953	-131.381	-0.306	-0.040
-450.938	121.040	0.116	-0.143
-449.924	6.732	0.094	0.069
-448.909	491.794	-0.097	0.222
-447.895	-57.491	-0.080	-0.035
-446.880	-6.716	0.062	-0.042
-445.865	673.138	-0.189	-0.486
-444.851	11.718	-0.140	0.107
-443.836	184.928	-0.124	0.183
-442.822	33.376	-0.323	0.279
-441.807	-35.013	0.076	-0.041
-440.792	-70.485	0.164	0.062
-439.778	-40.059	0.144	0.075
-438.763	-157.459	-0.511	-0.030
-437.749	67.789	0.118	-0.119
-436.734	65.492	0.159	-0.160
-435.719	-113.164	0.183	-0.036
-434.705	97.754	0.190	-0.217
-433.690	-136.373	0.452	0.052
-432.676	182.957	0.095	-0.139
-431.661	-100.046	-0.299	-0.074
-430.646	221.999	-0.197	0.315
-429.632	509.713	-0.113	0.261
-428.617	67.064	-0.115	-0.117
-427.603	723.707	-0.130	-0.344
-426.588	199.700	0.083	0.127
-425.573	-121.944	-0.160	-0.026
-424.559	8.478	-0.232	0.173
-423.544	200.084	0.161	-0.245
-422.530	-200.000	-0.025	0.121
-421.515	-200.000	0.021	-0.250
-420.500	5.975	-0.147	-0.108
-419.486	258.203	-0.101	0.173
-418.471	417.918	-0.054	-0.114
-417.457	-121.341	0.040	0.007
-416.442	-39.702	-0.304	0.158
-415.428	701.132	0.041	-0.107
-414.413	-117.219	0.398	-0.072
-413.398	-159.618	0.186	-0.010
-412.384	800.000	0.078	0.272
-411.369	81.928	0.301	0.323
-410.355	18.874	-0.314	0.250
-409.340	800.000	-0.061	0.178
-408.325	459.504	0.079	-0.175
-407.311	800.000	0.033	0.141
-406.296	293.833	0.087	0.158
-405.282	800.000	0.075	-0.292
-404.267	-133.996	0.062	0.008
-403.252	210.954	0.084	-0.132
-402.238	138.318	-0.200	-0.260
-401.223	-46.200	0.081	-0.040
-400.209	-200.000	0.014	-0.292
-399.194	-200.000	0.001	0.041
-398.179	195.905	-0.199	-0.301
-397.165	-113.546	0.256	0.050
-396.150	-24.399	-0.092	-0.054
-395.136	42.380	0.196	-0.176
-394.121	49.262	-0.091	0.085
-393.106	-200.000	0.034	-0.182
-392.092	186.528	-0.086	0.126
-391.077	303.072	-0.178	0.327
-390.063	800.000	-0.103	-0.310
-389.048	57.596	0.098	0.095
-388.033	-200.000	0.027	0.267
-387.019	-200.000	0.012	-0.181
-386.004	-200.000	0.027	-0.147
-384.990	-200.000	-0.040	0.237
-383.975	-95.066	0.283	-0.076
-382.960	-133.599	-0.121	-0.015
-381.946	-200.000	-0.004	0.100
-380.931	-63.985	-0.546	0.221
-379.917	136.630	0.181	0.234
-378.902	5.464	-0.303	-0.222
-377.888	504.895	0.039	0.089
-376.873	-85.885	0.116	0.036
-375.858	58.643	0.359	-0.350
-374.844	-73.977	-0.073	-0.026
-373.829	800.000	-0.044	-0.185
-372.815	-200.000	0.006	-0.152
-371.800	-107.656	0.087	0.019
-370.785	-73.617	0.232	0.084
-369.771	91.270	-0.208	-0.231
-368.756	-66.576	0.225	0.088
-367.742	388.329	0.102	0.208
-366.727	-95.734	0.342	-0.091
-365.712	-200.000	0.007	-0.119
-364.698	221.970	-0.064	0.102
-363.683	800.000	-0.024	-0.075
-362.669	-143.913	0.320	-0.030
-361.654	-170.257	0.070	0.002
-360.639	-32.597	0.367	0.202
-359.625	-200.000	0.055	-0.311
-358.610	-200.000	-0.041	0.265
-357.596	-200.000	-0.005	0.221
-356.581	-137.413	-0.066	0.007
-355.566	-85.225	0.170	0.052
-354.552	-144.817	0.234	0.021
-353.537	162.770	0.151	-0.211
-352.523	-10.139	-0.429	-0.282
-351.508	-82.954	-0.221	-0.071
-350.493	427.115	-0.078	-0.167
-349.479	-126.935	-0.318	0.046
-348.464	800.000	-0.077	0.246
-347.450	200.555	-0.088	0.134
-346.435	800.000	-0.035	-0.103
-345.420	-34.727	-0.258	0.140
-344.406	258.347	-0.057	0.098
-343.391	-77.063	-0.438	-0.151
-342.377	-200.000	0.005	0.035
-341.362	234.499	-0.224	-0.365
-340.348	-55.655	-0.265	0.117
-339.333	-200.000	0.034	0.348
-338.318	-109.718	0.275	-0.057
-337.304	-25.575	0.060	-0.035
-336.289	800.000	-0.035	-0.145
-335.275	-75.495	-0.220	0.078
-334.260	-200.000	-0.032	0.230
-333.245	800.000	-0.008	0.024
-332.231	76.498	0.270	-0.283
-331.216	130.319	0.169	-0.214
-330.202	-155.873	-0.189	0.012
-329.187	-82.942	0.121	0.039
-328.172	-40.751	-0.266	0.136
-327.158	-200.000	0.020	-0.254
-326.143	-93.913	-0.339	0.092
-325.129	-200.000	0.008	0.253
-324.114	63.867	0.286	-0.284
-323.099	-163.597	0.269	0.013
-322.085	-200.000	-0.015	0.417
-321.070	10.558	0.078	-0.059
-320.056	800.000	-0.097	-0.381
-319.041	-32.040	0.076	-0.042
-318.026	270.860	0.090	-0.157
-317.012	-108.727	-0.055	-0.012
-315.997	-80.294	-0.102	0.034
-314.983	-200.000	-0.049	0.437
-313.968	-127.054	-0.347	-0.050
-312.953	-4.485	0.063	-0.043
-311.939	-138.702	-0.146	0.016
-310.924	22.127	0.271	0.219
-309.910	-34.877	0.147	0.079
-308.895	269.910	-0.114	0.197
-307.880	-53.655	-0.225	0.102
-306.866	-89.200	0.147	0.043
-305.851	128.528	-0.158	0.199
-304.837	72.477	-0.163	-0.168
-303.822	189.829	0.090	-0.134
-302.807	800.000	-0.165	-0.493
-301.793	-191.318	-0.356	0.004
-300.778	146.456	-0.185	-0.245
-299.764	-100.704	0.048	-0.012
-298.749	378.429	-0.070	-0.141
-297.735	329.666	0.137	0.261
-296.720	-200.000	0.011	0.238
-295.705	-106.020	0.178	-0.040
-294.691	-139.011	-0.127	0.014
-293.676	231.988	-0.102	-0.166
-292.662	439.840	-0.041	0.088
-291.647	93.426	-0.105	0.117
-290.632	-145.227	0.258	-0.023
-289.618	-200.000	-0.023	0.335
-288.603	-200.000	0.033	0.269
-287.589	127.435	0.297	0.372
-286.574	244.721	0.125	0.207
-285.559	-3.401	0.323	-0.222
-284.545	138.414	0.141	0.182
-283.530	-45.450	0.143	0.070
-282.516	-131.993	0.158	0.020
-281.501	-125.395	-0.441	0.066
-280.486	-200.000	-0.043	0.239
-279.472	-109.848	0.102	-0.021
-278.457	800.000	-0.124	-0.388
-277.443	225.271	-0.225	-0.359
-276.428	800.000	-0.072	0.231
-275.413	-200.000	0.034	-0.198
-274.399	-46.216	-0.047	0.023
-273.384	-200.000	-0.003	-0.206
-272.370	10.036	0.294	-0.221
-271.355	-73.467	0.222	0.080
-270.340	155.816	-0.130	0.177
-269.326	45.614	0.207	0.189
-268.311	-64.601	-0.051	-0.020
-267.297	-200.000	-0.004	0.121
-266.282	305.106	-0.015	0.028
-265.267	-143.177	-0.215	-0.020
-264.253	218.399	-0.098	0.155
-263.238	-26.311	-0.112	-0.065
-262.224	-97.426	0.098	0.025
-261.209	-55.216	0.372	0.165
-260.195	75.270	-0.056	0.059
-259.180	-200.000	0.004	-0.239
-258.165	97.221	0.013	0.015
-257.151	33.344	-0.106	0.091
-256.136	-7.071	-0.215	-0.144
-255.122	-61.168	0.234	0.097
-254.107	-8.899	0.207	0.137
-253.092	-10.139	0.055	0.036
-252.078	-89.315	-0.150	-0.044
-251.063	47.638	0.342	-0.315
-250.049	-72.096	0.198	0.072
-249.034	-16.478	-0.177	0.111
-248.019	588.190	0.119	0.290
-247.005	534.353	0.162	-0.378
-245.990	-200.000	0.023	0.358
-244.976	138.449	-0.068	0.088
-243.961	-61.155	-0.168	0.070
-242.946	-122.756	0.254	0.041
-241.932	297.401	-0.068	0.123
-240.917	344.936	0.056	-0.109
-239.903	-4.001	-0.127	-0.087
-238.888	800.000	-0.086	-0.316
-237.873	-108.208	0.280	0.060
-236.859	-67.111	-0.172	0.067
-235.844	31.613	-0.032	-0.027
-234.830	546.302	0.095	0.223
-233.815	-148.917	0.091	0.007
-232.800	-178.234	0.309	0.007
-231.786	374.145	-0.054	0.108
-230.771	-200.000	0.019	-0.267
-229.757	266.858	-0.199	-0.342
-228.742	-200.000	-0.018	-0.189
-227.727	800.000	0.042	0.148
-226.713	623.482	-0.033	0.081
-225.698	587.134	-0.076	0.183
-224.684	-200.000	0.032	0.176
-223.669	219.030	-0.060	0.094
-222.655	65.344	0.075	-0.074
-221.640	-200.000	-0.017	0.323
-220.625	99.755	-0.179	0.205
-219.611	513.707	-0.124	-0.284
-218.596	800.000	0.066	-0.186
-217.582	-126.024	0.420	0.062
-216.567	137.960	0.047	0.060
-215.552	82.680	0.150	-0.161
-214.538	73.560	0.188	0.194
-213.523	-174.129	0.204	-0.006
-212.509	-33.604	0.280	-0.152
-211.494	53.992	0.206	0.195
-210.479	551.887	-0.178	0.420
-209.465	-37.583	0.094	0.049
-208.450	225.451	0.139	-0.221
-207.436	-114.761	0.220	0.041
-206.421	-200.000	-0.011	0.144
-205.406	2.268	-0.148	0.105
-204.392	-200.000	0.020	-0.155
-203.377	75.798	0.143	0.149
-202.363	286.270	0.102	0.180
-201.348	-68.280	0.081	0.031
-200.333	327.409	0.076	-0.143
-199.319	-109.602	-0.189	0.039
-198.304	800.000	0.053	-0.222
-197.290	-194.000	-0.226	-0.002
-196.275	-45.507	-0.103	-0.050
-195.260	-200.000	0.156	0.000
-194.246	122.704	0.085	-0.105
-193.231	7.001	0.249	0.182
-192.217	-96.694	-0.267	0.069
-191.202	-106.347	0.200	0.044
-190.187	-200.000	-0.029	0.243
-189.173	-125.107	0.505	0.076
-188.158	-140.562	0.188	0.019
-187.144	-200.000	0.012	0.132
-186.129	72.977	-0.111	-0.114
-185.114	16.805	-0.213	-0.166
-184.100	-200.000	0.002	0.041
-183.085	307.945	0.051	0.094
-182.071	-171.747	0.093	0.003
-181.056	428.660	-0.034	-0.073
-180.042	63.915	-0.079	0.078
-179.027	-68.035	0.244	0.094
-178.012	800.000	0.048	0.140
-176.998	28.680	-0.089	0.074
-175.983	-22.728	-0.540	0.321
-174.969	-11.481	0.232	-0.150
-173.954	800.000	-0.116	0.327
-172.939	-107.257	-0.172	0.037
-171.925	-200.000	0.002	0.120
-170.910	-153.411	-0.031	-0.002
-169.896	-200.000	-0.084	0.400
-168.881	-147.879	0.332	0.027
-167.866	-102.861	0.264	0.062
-166.852	7.703	0.085	-0.063
-165.837	13.057	0.255	-0.194
-164.823	152.603	0.026	0.035
-163.808	-200.000	0.001	-0.255
-162.793	-75.448	0.242	0.085
-161.779	-170.678	-0.218	-0.007
-160.764	800.000	-0.056	0.212
-159.750	375.681	-0.055	-0.109
-158.735	-21.991	0.164	-0.098
-157.720	-111.541	0.049	-0.010
-156.706	88.069	-0.176	0.192
-155.691	-36.381	-0.149	0.079
-154.677	40.847	-0.188	-0.166
-153.662	-162.883	-0.295	0.014
-152.647	330.620	0.073	0.138
-151.633	-136.777	-0.143	-0.016
-150.618	-77.240	0.280	0.096
-149.604	671.551	0.031	-0.080
-148.589	421.041	0.127	0.267
-147.574	-107.308	-0.215	0.046
-146.560	-54.854	0.263	-0.117
-145.545	-186.924	-0.110	0.002
-144.531	-9.331	0.242	0.159
-143.516	-91.372	-0.378	0.106
-142.502	0.346	0.341	0.239
-141.487	-200.000	0.043	-0.191
-140.472	-200.000	-0.032	-0.389
-139.458	567.662	0.041	0.098
-138.443	-77.798	-0.448	-0.152
-137.429	-111.463	0.096	-0.019
-136.414	29.135	-0.129	-0.107
-135.399	24.296	-0.163	0.133
-134.385	583.670	-0.006	-0.015
-133.370	143.907	0.142	-0.186
-132.356	94.040	0.029	0.032
-131.341	-95.126	0.145	-0.038
-130.326	-97.615	0.503	0.128
-129.312	198.873	-0.040	0.061
-128.297	-200.000	0.017	0.100
-127.283	16.625	-0.203	-0.157
-126.268	10.092	-0.129	-0.096
-125.253	217.950	0.186	-0.291
-124.239	-131.967	0.482	0.062
-123.224	52.463	0.144	0.135
-122.210	122.229	0.077	-0.094
