DTS Sentinel unit serial number:	SN413079Multiplexer serial number:	ORYXHardware model number:	OX4-SRSoftware version number:	ORYX F/W v4.00 Oryx Data Collector v3.7.2.0data status	okinstallation	princeton_trtdifferential loss correction	single-endedforward channel	channel 4reverse channel	N/Adate	2019/10/01time	00:01:34forward acquisition time	60.00reverse acquisition time	0.00gamma	496.2192k internal	0.2322k external	0.2322temperature offset calibration	0.9945default loss term (dB/km)	0.3790temperature slope calibration	1.0000multiplexer offset coefficient	1.0000multiplexer slope coefficient	1.0000fibre end	0.00T internal ref (°C)	27.12T ext. ref 1 (°C)	4.04T ext. ref 2 (°C)	21.06length (m)	temperature (°C)	Stokes	anti-Stokes-747.200	-137.699	0.258	0.029
-746.185	33.905	-0.256	0.225
-745.171	800.000	-0.050	0.198
-744.156	608.464	-0.042	0.105
-743.142	554.688	-0.043	0.104
-742.127	135.906	-0.121	-0.160
-741.112	-26.180	0.042	0.025
-740.098	-78.399	-0.170	0.059
-739.083	-200.000	-0.026	-0.119
-738.069	550.466	-0.136	0.330
-737.054	163.687	0.154	0.219
-736.039	324.649	-0.156	-0.301
-735.025	-200.000	0.081	0.445
-734.010	-137.802	-0.275	0.031
-732.996	-140.653	-0.139	0.014
-731.981	-86.764	0.071	0.022
-730.966	199.429	0.105	-0.163
-729.952	-141.757	-0.185	0.019
-728.937	-200.000	-0.017	-0.431
-727.923	800.000	-0.089	-0.360
-726.908	122.319	-0.099	0.125
-725.894	-30.941	-0.666	-0.380
-724.879	-99.566	0.193	0.049
-723.864	99.924	-0.081	-0.095
-722.850	800.000	0.033	0.122
-721.835	800.000	0.107	-0.427
-720.821	-200.000	-0.008	0.232
-719.806	-71.851	-0.180	0.067
-718.791	-98.996	-0.112	-0.029
-717.777	332.005	0.195	-0.380
-716.762	-109.717	0.137	0.029
-715.748	800.000	0.071	0.288
-714.733	-200.000	-0.013	0.057
-713.718	800.000	-0.101	0.340
-712.704	52.969	0.085	-0.082
-711.689	625.051	0.032	-0.081
-710.675	114.501	0.101	-0.124
-709.660	289.971	-0.095	0.174
-708.645	-135.137	0.298	-0.036
-707.631	-139.791	0.248	0.027
-706.616	-60.633	0.186	0.079
-705.602	-0.454	-0.523	-0.375
-704.587	800.000	-0.044	-0.140
-703.572	-200.000	-0.003	0.067
-702.558	-200.000	-0.017	-0.108
-701.543	800.000	-0.085	-0.348
-700.529	-63.059	0.222	-0.093
-699.514	127.054	-0.145	0.185
-698.499	-68.328	0.132	0.052
-697.485	800.000	0.150	0.488
-696.470	160.064	0.219	0.308
-695.456	-200.000	0.032	0.228
-694.441	503.605	-0.084	-0.197
-693.426	-9.824	0.189	0.127
-692.412	101.470	0.099	-0.117
-691.397	-73.082	-0.087	-0.032
-690.383	-79.367	0.327	0.112
-689.368	14.490	0.200	-0.158
-688.354	214.265	0.106	-0.168
-687.339	800.000	-0.096	0.281
-686.324	-200.000	-0.032	0.185
-685.310	-130.086	-0.258	-0.036
-684.295	-48.435	0.240	0.116
-683.281	-77.185	0.334	-0.117
-682.266	159.663	0.173	-0.242
-681.251	-13.135	-0.191	0.125
-680.237	187.334	0.155	-0.233
-679.222	-200.000	0.018	-0.188
-678.208	-127.886	-0.397	0.058
-677.193	-85.098	-0.294	0.093
-676.178	214.286	0.249	0.397
-675.164	-200.000	-0.029	0.277
-674.149	-31.063	0.095	-0.054
-673.135	-111.494	-0.343	-0.070
-672.120	342.437	-0.091	-0.180
-671.105	800.000	0.120	0.483
-670.091	752.242	0.122	-0.331
-669.076	-23.068	-0.401	0.244
-668.062	800.000	0.070	0.215
-667.047	-129.376	-0.593	-0.083
-666.032	123.923	-0.180	0.227
-665.018	106.798	-0.025	-0.030
-664.003	800.000	0.126	-0.374
-662.989	-120.473	0.172	0.029
-661.974	-170.473	0.132	-0.005
-660.959	-200.000	0.017	-0.213
-659.945	68.829	0.128	-0.132
-658.930	95.475	-0.111	-0.127
-657.916	-152.412	-0.129	0.009
-656.901	800.000	0.090	0.287
-655.886	193.572	-0.173	0.264
-654.872	96.611	0.120	0.138
-653.857	-25.905	0.235	0.139
-652.843	-7.135	0.087	-0.059
-651.828	-200.000	-0.059	-0.271
-650.814	20.063	-0.136	-0.110
-649.799	53.399	-0.227	-0.219
-648.784	107.596	-0.077	0.092
-647.770	800.000	-0.069	-0.276
-646.755	440.078	-0.044	-0.097
-645.741	370.820	0.023	-0.046
-644.726	450.941	-0.086	-0.191
-643.711	160.614	-0.146	0.205
-642.697	-155.884	-0.333	-0.021
-641.682	62.199	0.104	0.104
-640.668	39.370	0.309	-0.278
-639.653	1.062	-0.207	0.149
-638.638	-160.333	0.113	0.006
-637.624	-200.000	-0.035	-0.229
-636.609	-177.802	0.139	-0.003
-635.595	-139.518	-0.115	0.012
-634.580	-200.000	0.001	-0.143
-633.565	280.795	0.134	0.241
-632.551	268.623	0.043	-0.076
-631.536	800.000	-0.020	-0.073
-630.522	-170.647	-0.169	-0.006
-629.507	800.000	-0.040	-0.128
-628.492	800.000	0.052	-0.185
-627.478	-79.482	-0.165	-0.056
-626.463	-135.464	-0.408	0.049
-625.449	37.571	0.192	-0.172
-624.434	-4.643	-0.141	-0.098
-623.419	129.828	-0.108	-0.140
-622.405	33.663	0.263	-0.230
-621.390	-200.000	0.025	-0.256
-620.376	-200.000	0.049	-0.249
-619.361	215.695	-0.112	-0.179
-618.346	800.000	0.068	-0.248
-617.332	-47.164	-0.071	-0.035
-616.317	299.813	-0.150	-0.278
-615.303	-108.052	0.339	-0.074
-614.288	-134.997	0.307	0.037
-613.273	-87.769	0.216	0.065
-612.259	-200.000	0.068	-0.308
-611.244	-200.000	-0.032	0.154
-610.230	-111.071	0.035	0.007
-609.215	83.909	-0.045	-0.049
-608.201	633.194	-0.043	0.109
-607.186	-200.000	0.070	0.369
-606.171	-199.856	-0.183	0.001
-605.157	-101.115	-0.233	0.057
-604.142	120.262	0.031	0.039
-603.128	-200.000	0.027	0.262
-602.113	-82.500	-0.114	-0.037
-601.098	-200.000	0.044	-0.274
-600.084	-47.141	-0.326	-0.160
-599.069	-179.439	0.086	0.002
-598.055	164.769	0.075	0.107
-597.040	47.639	0.174	-0.163
-596.025	-37.480	-0.137	0.073
-595.011	412.371	-0.086	0.184
-593.996	263.642	0.076	0.132
-592.982	627.424	0.017	-0.043
-591.967	-96.053	-0.502	0.134
-590.952	-200.000	-0.015	0.182
-589.938	-80.323	-0.079	0.027
-588.923	121.203	-0.141	0.176
-587.909	68.037	-0.171	-0.176
-586.894	103.822	0.041	-0.048
-585.879	-200.000	-0.029	0.264
-584.865	-13.431	0.335	-0.218
-583.850	-94.307	0.342	-0.094
-582.836	-27.713	0.160	-0.093
-581.821	-65.497	-0.160	0.064
-580.806	-200.000	0.051	0.229
-579.792	-111.798	-0.224	0.045
-578.777	-46.796	-0.129	0.063
-577.763	-88.785	-0.113	-0.034
-576.748	345.551	-0.122	0.241
-575.733	-200.000	-0.029	0.186
-574.719	250.444	0.093	0.158
-573.704	104.536	-0.182	0.215
-572.690	75.429	-0.239	-0.254
-571.675	-127.357	-0.229	-0.033
-570.661	156.145	0.043	-0.059
-569.646	-200.000	0.008	0.141
-568.631	-200.000	-0.065	-0.298
-567.617	-146.940	0.362	0.031
-566.602	-62.019	0.242	-0.102
-565.588	-200.000	-0.003	-0.229
-564.573	-76.380	-0.045	-0.016
-563.558	-200.000	-0.014	0.236
-562.544	-161.802	0.046	0.002
-561.529	-80.232	0.094	-0.032
-560.515	-119.891	-0.202	0.035
-559.500	-154.360	0.046	-0.003
-558.485	274.920	0.075	-0.133
-557.471	32.893	-0.178	-0.155
-556.456	-200.000	-0.040	-0.292
-555.442	-91.129	0.168	-0.048
-554.427	77.253	-0.173	-0.185
-553.412	33.912	-0.409	-0.357
-552.398	-189.584	-0.432	0.005
-551.383	595.994	-0.108	0.268
-550.369	81.567	0.113	-0.122
-549.354	-130.275	-0.274	0.037
-548.339	-161.025	0.312	0.016
-547.325	-200.000	0.013	-0.230
-546.310	-47.923	-0.157	-0.076
-545.296	522.285	-0.130	-0.306
-544.281	612.731	-0.060	-0.149
-543.266	-127.741	0.314	0.045
-542.252	800.000	-0.096	-0.353
-541.237	-200.000	0.009	-0.299
-540.223	800.000	0.052	-0.156
-539.208	291.862	0.063	-0.114
-538.193	-154.993	-0.254	0.017
-537.179	751.092	0.054	0.146
-536.164	-102.616	-0.289	-0.069
-535.150	-71.152	-0.236	0.089
-534.135	-180.672	-0.063	0.001
-533.121	-0.752	0.201	0.143
-532.106	-108.829	0.270	0.058
-531.091	137.724	-0.160	-0.210
-530.077	204.289	-0.039	-0.061
-529.062	-45.455	0.179	0.089
-528.048	-200.000	-0.043	0.322
-527.033	-72.036	-0.129	-0.048
-526.018	-13.748	-0.175	-0.113
-525.004	-75.357	-0.409	0.146
-523.989	300.732	0.092	0.170
-522.975	-88.709	-0.430	0.128
-521.960	-200.000	-0.003	-0.177
-520.945	358.030	-0.071	-0.142
-519.931	-19.527	-0.138	-0.086
-518.916	45.828	-0.139	-0.129
-517.902	350.223	0.013	-0.026
-516.887	388.212	0.089	-0.184
-515.872	153.153	-0.136	0.187
-514.858	166.792	0.160	0.227
-513.843	276.314	-0.157	-0.279
-512.829	-112.511	-0.123	0.025
-511.814	40.778	0.129	-0.117
-510.799	114.023	-0.150	0.183
-509.785	-37.773	-0.176	-0.094
-508.770	-23.514	0.280	-0.168
-507.756	-200.000	0.024	-0.268
-506.741	121.517	-0.104	0.129
-505.726	-200.000	-0.059	0.293
-504.712	-130.716	0.039	0.005
-503.697	329.645	0.151	0.291
-502.683	-87.584	-0.191	0.058
-501.668	-200.000	-0.060	0.284
-500.653	-131.077	-0.038	-0.005
-499.639	-56.615	0.235	-0.104
-498.624	-200.000	0.054	-0.449
-497.610	-200.000	-0.005	-0.219
-496.595	-200.000	-0.064	-0.341
-495.581	316.757	0.069	-0.130
-494.566	-19.377	-0.196	0.121
-493.551	7.915	0.131	0.098
-492.537	-100.790	0.159	-0.039
-491.522	-200.000	-0.034	-0.263
-490.508	-200.000	0.050	-0.248
-489.493	49.284	-0.093	0.087
-488.478	88.858	0.139	-0.155
-487.464	-127.575	0.351	0.051
-486.449	15.010	0.118	0.092
-485.435	-75.425	-0.117	0.042
-484.420	188.964	-0.075	-0.112
-483.405	135.029	-0.068	-0.088
-482.391	-200.000	0.045	0.238
-481.376	-98.131	0.164	-0.042
-480.362	-91.724	-0.095	0.027
-479.347	116.953	0.109	-0.134
-478.332	12.288	0.174	-0.134
-477.318	3.773	-0.190	-0.139
-476.303	-9.519	0.113	-0.075
-475.289	414.011	0.234	-0.498
-474.274	-200.000	-0.007	0.107
-473.259	173.283	-0.068	0.099
-472.245	-59.854	-0.023	-0.010
-471.230	-32.119	0.087	0.049
-470.216	-171.052	0.185	0.006
-469.201	80.842	0.161	0.174
-468.186	-200.000	0.055	-0.270
-467.172	-200.000	0.011	-0.306
-466.157	-93.950	0.107	0.029
-465.143	237.261	0.131	0.217
-464.128	-40.623	-0.360	-0.187
-463.113	179.446	0.047	-0.069
-462.099	-4.990	-0.259	-0.178
-461.084	10.448	0.206	-0.157
-460.070	-89.322	-0.215	-0.063
-459.055	18.605	-0.079	-0.063
-458.040	-52.588	0.395	-0.182
-457.026	120.299	-0.208	-0.258
-456.011	626.247	0.093	0.233
-454.997	-134.950	0.082	0.010
-453.982	158.863	-0.061	0.085
-452.968	639.097	-0.044	-0.111
-451.953	-122.896	-0.404	0.065
-450.938	-51.894	-0.290	0.135
-449.924	48.052	0.008	0.008
-448.909	-38.131	0.178	-0.094
-447.895	89.732	0.075	0.084
-446.880	89.154	-0.070	-0.078
-445.865	800.000	0.027	0.085
-444.851	-176.110	-0.100	0.003
-443.836	39.937	0.210	0.189
-442.822	-67.814	-0.355	0.139
-441.807	-96.678	0.081	-0.021
-440.792	-154.077	0.120	0.008
-439.778	184.948	0.047	-0.069
-438.763	-200.000	0.070	-0.330
-437.749	53.414	0.163	-0.156
-436.734	-83.317	0.252	-0.081
-435.719	513.238	-0.030	0.071
-434.705	-63.428	-0.402	-0.165
-433.690	-106.372	-0.071	0.016
-432.676	-136.902	-0.268	-0.031
-431.661	-200.000	0.109	-0.000
-430.646	11.752	0.076	0.058
-429.632	19.418	0.200	0.161
-428.617	-200.000	-0.001	0.173
-427.603	-47.521	0.138	-0.067
-426.588	-81.492	-0.665	-0.218
-425.573	-200.000	-0.071	0.396
-424.559	185.368	-0.053	0.078
-423.544	800.000	0.064	-0.228
-422.530	-200.000	0.004	-0.092
-421.515	98.952	0.085	-0.098
-420.500	-200.000	0.000	0.015
-419.486	-200.000	-0.010	-0.051
-418.471	432.628	0.056	0.121
-417.457	259.209	-0.003	-0.006
-416.442	-83.572	0.216	0.069
-415.428	30.681	-0.156	-0.133
-414.413	-26.890	-0.202	-0.117
-413.398	76.404	0.052	-0.055
-412.384	-96.106	0.149	0.039
-411.369	375.086	0.053	0.108
-410.355	157.717	-0.164	0.227
-409.340	800.000	-0.056	0.217
-408.325	88.417	0.114	0.126
-407.311	800.000	0.011	-0.031
-406.296	-200.000	-0.029	-0.208
-405.282	322.538	0.091	-0.173
-404.267	58.063	-0.017	-0.017
-403.252	-200.000	-0.033	0.217
-402.238	74.707	0.212	0.222
-401.223	-100.980	0.428	0.105
-400.209	76.241	-0.036	-0.038
-399.194	166.034	0.092	0.130
-398.179	-101.015	0.054	-0.013
-397.165	-4.037	-0.165	0.114
-396.150	-138.185	0.051	-0.006
-395.136	-193.599	0.386	0.003
-394.121	-148.784	-0.039	-0.003
-393.106	41.934	0.032	0.029
-392.092	299.900	-0.108	-0.198
-391.077	-24.078	-0.023	-0.014
-390.063	-200.000	0.028	0.175
-389.048	-113.270	0.318	0.062
-388.033	46.648	0.211	-0.195
-387.019	-31.439	-0.191	0.107
-386.004	223.044	0.068	-0.109
-384.990	21.523	0.150	0.121
-383.975	-108.935	0.225	0.048
-382.960	467.647	0.131	0.293
-381.946	601.095	0.011	0.026
-380.931	623.090	0.087	-0.219
-379.917	-143.082	0.191	0.018
-378.902	381.718	0.075	-0.154
-377.888	-200.000	0.042	0.272
-376.873	800.000	0.052	-0.154
-375.858	800.000	-0.051	-0.178
-374.844	174.884	0.122	-0.175
-373.829	25.051	0.282	0.233
-372.815	-13.962	0.193	0.124
-371.800	-200.000	0.042	0.209
-370.785	-200.000	-0.025	-0.111
-369.771	-200.000	-0.011	0.125
-368.756	251.985	-0.018	0.030
-367.742	-200.000	-0.001	-0.166
-366.727	78.352	-0.133	-0.142
-365.712	-55.982	0.367	0.163
-364.698	-83.912	-0.358	-0.114
-363.683	-68.909	-0.235	0.090
-362.669	90.176	-0.079	0.088
-361.654	100.223	0.084	0.097
-360.639	-200.000	-0.038	-0.170
-359.625	-200.000	0.009	0.062
-358.610	-10.694	0.161	-0.106
-357.596	220.454	0.082	0.131
-356.581	-2.961	0.258	0.179
-355.566	114.477	-0.190	-0.230
-354.552	35.782	-0.045	0.039
-353.537	-200.000	-0.004	-0.144
-352.523	-200.000	0.017	-0.346
-351.508	-200.000	0.020	0.232
-350.493	36.567	-0.014	-0.012
-349.479	300.590	0.254	0.467
-348.464	-52.008	0.097	-0.045
-347.450	152.933	-0.194	0.264
-346.435	59.384	0.116	0.114
-345.420	-200.000	-0.001	0.377
-344.406	800.000	0.091	-0.254
-343.391	213.802	0.165	0.260
-342.377	-91.830	0.142	0.040
-341.362	243.669	-0.137	-0.228
-340.348	98.631	-0.083	0.095
-339.333	275.855	0.073	0.129
-338.318	57.109	-0.141	0.137
-337.304	-200.000	-0.031	0.158
-336.289	-92.148	-0.181	0.051
-335.275	-39.477	-0.079	-0.041
-334.260	-200.000	-0.007	-0.139
-333.245	103.627	-0.178	0.208
-332.231	148.259	0.028	-0.037
-331.216	556.737	-0.139	-0.333
-330.202	198.918	-0.183	0.279
-329.187	-200.000	0.034	0.388
-328.172	-163.712	0.169	0.008
-327.158	-85.254	-0.338	-0.105
-326.143	728.171	-0.139	-0.368
-325.129	221.326	0.052	0.083
-324.114	-45.298	0.435	0.215
-323.099	76.482	0.009	-0.009
-322.085	177.302	-0.029	-0.042
-321.070	-200.000	0.037	0.162
-320.056	547.779	0.148	0.351
-319.041	1.370	-0.191	-0.137
-318.026	-132.380	-0.104	-0.013
-317.012	-16.643	-0.201	-0.126
-315.997	-83.637	0.208	0.066
-314.983	-13.242	0.197	-0.127
-313.968	-56.705	-0.328	0.144
-312.953	-19.721	0.170	0.104
-311.939	-178.991	0.164	-0.004
-310.924	78.625	-0.049	-0.052
-309.910	537.746	-0.068	-0.160
-308.895	-59.548	-0.294	-0.125
-307.880	19.106	0.161	0.128
-306.866	228.847	-0.292	0.474
-305.851	-186.421	0.107	0.002
-304.837	-13.401	0.151	-0.098
-303.822	1.170	0.352	0.251
-302.807	-86.030	-0.152	0.047
-301.793	341.619	-0.248	0.481
-300.778	-165.193	0.246	0.011
-299.764	189.633	-0.150	-0.224
-298.749	800.000	0.097	-0.335
-297.735	-29.045	-0.213	0.121
-296.720	-200.000	0.022	-0.225
-295.705	-75.440	0.067	-0.024
-294.691	108.184	0.267	-0.316
-293.676	-81.971	0.070	-0.023
-292.662	-186.412	-0.190	-0.003
-291.647	800.000	0.126	-0.415
-290.632	259.809	0.066	0.113
-289.618	108.080	-0.102	-0.120
-288.603	-50.996	-0.420	0.195
-287.589	-200.000	0.010	0.059
-286.574	-44.845	-0.146	-0.072
-285.559	-57.510	-0.183	-0.080
-284.545	-200.000	0.010	0.107
-283.530	649.490	0.034	-0.087
-282.516	-126.728	0.051	0.008
-281.501	17.690	-0.175	-0.138
-280.486	800.000	0.152	0.420
-279.472	-200.000	-0.021	0.120
-278.457	800.000	-0.064	-0.199
-277.443	40.276	-0.100	-0.089
-276.428	59.628	-0.173	0.169
-275.413	69.146	0.318	0.324
-274.399	-10.119	-0.230	0.151
-273.384	-147.307	0.327	-0.028
-272.370	311.177	0.128	0.239
-271.355	-60.772	-0.331	0.139
-270.340	800.000	0.033	-0.113
-269.326	-119.264	0.151	0.026
-268.311	-200.000	-0.036	0.301
-267.297	-5.045	0.230	0.157
-266.282	-12.852	-0.153	-0.099
-265.267	-97.842	-0.172	-0.044
-264.253	-130.139	0.055	0.007
-263.238	-142.740	-0.154	-0.015
-262.224	110.052	-0.167	-0.199
-261.209	-200.000	-0.008	-0.096
-260.195	71.854	0.273	0.281
-259.180	-35.435	0.105	0.057
-258.165	-74.001	0.183	-0.066
-257.151	-58.671	0.112	0.048
-256.136	599.512	-0.097	-0.238
-255.122	78.512	0.218	-0.231
-254.107	-149.435	0.138	-0.011
-253.092	-116.815	-0.144	-0.026
-252.078	-11.309	0.393	0.256
-251.063	-200.000	0.031	-0.137
-250.049	12.900	-0.254	-0.195
-249.034	68.952	-0.130	-0.132
-248.019	-148.484	-0.148	0.012
-247.005	-77.839	0.372	-0.127
-245.990	400.414	-0.146	0.304
-244.976	-91.034	0.179	-0.051
-243.961	-66.457	-0.119	0.047
-242.946	417.224	-0.011	-0.023
-241.932	109.805	0.057	0.068
-240.917	-200.000	-0.034	0.204
-239.903	104.523	0.098	-0.114
-238.888	127.321	0.162	0.203
-237.873	-4.214	0.069	-0.047
-236.859	86.630	-0.236	0.258
-235.844	-200.000	0.031	-0.194
-234.830	-115.335	0.070	0.013
-233.815	384.033	0.158	0.322
-232.800	-200.000	-0.005	-0.045
-231.786	359.080	0.070	-0.138
-230.771	-29.743	0.132	0.075
-229.757	521.886	-0.055	0.128
-228.742	-200.000	0.052	0.492
-227.727	16.281	0.248	0.194
-226.713	58.462	-0.209	-0.203
-225.698	-13.525	0.183	-0.117
-224.684	800.000	-0.054	0.157
-223.669	198.546	0.052	0.079
-222.655	-70.424	-0.114	0.043
-221.640	-148.179	-0.129	-0.011
-220.625	-78.188	-0.269	0.092
-219.611	-3.827	0.156	0.107
-218.596	-93.944	-0.306	0.083
-217.582	-0.026	0.180	0.127
-216.567	-117.911	-0.086	0.015
-215.552	-200.000	-0.034	0.154
-214.538	-200.000	0.011	0.419
-213.523	800.000	-0.027	0.089
-212.509	-200.000	0.008	0.154
-211.494	46.072	0.049	-0.045
-210.479	-27.887	0.223	-0.128
-209.465	362.434	0.071	-0.140
-208.450	-154.834	-0.083	-0.005
-207.436	315.653	0.214	-0.400
-206.421	223.532	0.069	-0.110
-205.406	126.492	0.118	-0.147
-204.392	-150.674	0.221	0.017
-203.377	-1.979	0.146	0.101
-202.363	-200.000	-0.006	0.401
-201.348	5.439	0.109	-0.080
-200.333	-100.572	-0.166	0.041
-199.319	-86.363	0.164	0.050
-198.304	7.496	0.272	0.201
-197.290	278.825	0.108	-0.190
-196.275	374.984	-0.100	0.202
-195.260	-200.000	-0.006	0.465
-194.246	181.415	-0.173	0.251
-193.231	41.573	0.059	-0.053
-192.217	-200.000	0.005	-0.100
-191.202	264.641	-0.153	0.264
-190.187	-59.510	0.120	0.051
-189.173	97.829	0.035	0.040
-188.158	800.000	0.019	-0.053
-187.144	122.198	-0.252	-0.312
-186.129	180.326	0.249	-0.361
-185.114	94.619	-0.179	-0.201
-184.100	438.187	-0.091	0.197
-183.085	-200.000	0.015	0.293
-182.071	78.905	0.126	-0.133
-181.056	-13.825	0.165	-0.105
-180.042	-89.756	0.197	-0.057
-179.027	-20.246	-0.402	-0.244
-178.012	739.161	-0.019	-0.049
-176.998	800.000	-0.083	0.359
-175.983	-200.000	0.040	-0.376
-174.969	-26.605	-0.161	0.093
-173.954	-152.792	0.156	-0.011
-172.939	-200.000	-0.002	0.018
-171.925	-24.352	-0.064	-0.037
-170.910	61.292	0.228	0.224
-169.896	-200.000	-0.054	0.282
-168.881	22.107	0.190	-0.153
-167.866	-160.977	-0.184	0.010
-166.852	-52.621	0.207	0.094
-165.837	-124.806	-0.036	0.006
-164.823	-58.378	0.183	-0.079
-163.808	409.315	-0.085	0.177
-162.793	-200.000	0.112	0.508
-161.779	467.542	-0.111	0.247
-160.764	628.884	-0.095	-0.238
-159.750	-200.000	-0.042	-0.197
-158.735	-137.917	0.237	-0.026
-157.720	800.000	-0.049	0.172
-156.706	800.000	0.030	-0.127
-155.691	-80.271	0.260	-0.086
-154.677	-118.227	-0.226	-0.040
-153.662	260.909	-0.103	0.176
-152.647	-89.547	-0.078	0.023
-151.633	-200.000	-0.021	0.233
-150.618	-107.934	-0.275	-0.059
-149.604	-159.822	0.154	0.008
-148.589	14.105	-0.122	0.094
-147.574	142.876	0.060	0.078
-146.560	-150.887	0.387	-0.029
-145.545	800.000	0.055	0.214
-144.531	-94.165	0.258	0.070
-143.516	-200.000	0.021	0.123
-142.502	-200.000	-0.001	-0.193
-141.487	800.000	0.101	0.304
-140.472	-8.767	0.217	0.144
-139.458	-46.081	-0.152	-0.074
-138.443	-69.779	-0.094	-0.035
-137.429	23.646	-0.084	-0.068
-136.414	293.465	0.026	0.047
-135.399	-20.217	-0.141	-0.085
-134.385	771.770	0.067	0.179
-133.370	800.000	0.066	0.226
-132.356	800.000	-0.049	-0.139
-131.341	-200.000	0.037	0.166
-130.326	-167.871	0.200	-0.008
-129.312	-200.000	-0.006	0.197
-128.297	66.512	0.215	0.215
-127.283	800.000	-0.032	0.120
-126.268	-63.610	0.183	0.074
-125.253	60.862	-0.107	0.104
-124.239	800.000	-0.015	-0.058
-123.224	186.587	0.151	0.222
-122.210	99.407	0.159	0.182
-121.195	13.168	-0.162	0.123
