DTS Sentinel unit serial number:	SN413079Multiplexer serial number:	ORYXHardware model number:	OX4-SRSoftware version number:	ORYX F/W v4.00 Oryx Data Collector v3.7.2.0data status	okinstallation	princeton_trtdifferential loss correction	single-endedforward channel	channel 3reverse channel	N/Adate	2019/10/01time	00:00:34forward acquisition time	60.00reverse acquisition time	0.00gamma	496.2192k internal	0.2338k external	0.2338temperature offset calibration	0.9885default loss term (dB/km)	0.3790temperature slope calibration	1.0000multiplexer offset coefficient	1.0000multiplexer slope coefficient	1.0000fibre end	0.00T internal ref (°C)	27.12T ext. ref 1 (°C)	4.07T ext. ref 2 (°C)	21.06length (m)	temperature (°C)	Stokes	anti-Stokes-747.200	-200.000	-0.004	-0.108
-746.185	39.933	-0.132	-0.119
-745.171	397.866	-0.186	0.390
-744.156	-155.341	-0.191	0.012
-743.142	-200.000	-0.006	-0.177
-742.127	0.584	0.155	-0.111
-741.112	649.857	0.111	-0.285
-740.098	-154.323	-0.108	-0.007
-739.083	168.909	-0.027	-0.039
-738.069	-200.000	0.010	0.104
-737.054	800.000	0.094	0.271
-736.039	100.030	-0.324	0.377
-735.025	-200.000	0.040	0.362
-734.010	-24.543	-0.132	0.079
-732.996	-192.828	0.131	0.001
-731.981	-52.585	-0.131	0.060
-730.966	34.101	-0.016	-0.014
-729.952	388.768	-0.192	0.398
-728.937	16.330	-0.253	0.200
-727.923	-200.000	0.001	0.179
-726.908	-15.737	-0.247	0.158
-725.894	800.000	-0.082	-0.251
-724.879	-200.000	0.034	-0.169
-723.864	-62.267	-0.197	0.082
-722.850	290.709	-0.165	0.301
-721.835	75.631	0.181	0.191
-720.821	800.000	0.097	-0.385
-719.806	694.819	-0.123	-0.323
-718.791	-118.926	-0.516	0.091
-717.777	438.068	-0.164	-0.358
-716.762	-30.217	-0.198	-0.113
-715.748	-88.360	-0.215	0.064
-714.733	-99.009	0.187	-0.047
-713.718	800.000	0.060	0.230
-712.704	-200.000	0.007	-0.124
-711.689	-63.822	-0.088	0.036
-710.675	16.888	-0.168	-0.133
-709.660	-200.000	-0.049	-0.263
-708.645	362.410	-0.061	-0.123
-707.631	-45.665	0.281	0.139
-706.616	291.420	-0.067	-0.123
-705.602	127.303	0.078	-0.100
-704.587	664.661	-0.038	-0.098
-703.572	345.442	0.031	-0.061
-702.558	41.621	0.203	0.184
-701.543	735.807	-0.113	0.303
-700.529	250.379	0.050	0.086
-699.514	-57.832	0.173	0.076
-698.499	282.620	0.207	0.373
-697.485	661.357	-0.061	0.157
-696.470	202.470	0.238	-0.367
-695.456	800.000	0.118	0.338
-694.441	-69.483	0.235	0.090
-693.426	-200.000	0.075	-0.487
-692.412	-200.000	0.010	0.062
-691.397	-92.228	-0.347	0.098
-690.383	-145.612	0.285	0.026
-689.368	129.406	0.083	0.107
-688.354	187.883	-0.069	0.103
-687.339	-119.198	-0.085	-0.015
-686.324	34.655	0.127	0.111
-685.310	800.000	0.015	0.062
-684.295	92.161	-0.068	-0.077
-683.281	-103.535	0.345	0.081
-682.266	-200.000	-0.035	0.282
-681.251	-200.000	-0.036	-0.351
-680.237	-151.688	-0.263	-0.019
-679.222	-56.321	-0.350	-0.155
-678.208	-200.000	0.021	0.380
-677.193	800.000	0.107	-0.441
-676.178	-66.139	-0.078	-0.031
-675.164	-37.044	0.219	0.117
-674.149	-82.115	-0.118	-0.039
-673.135	-200.000	0.015	0.152
-672.120	17.411	0.172	-0.137
-671.105	-200.000	0.007	0.105
-670.091	-200.000	0.005	0.175
-669.076	-163.944	0.126	0.006
-668.062	5.755	-0.047	-0.035
-667.047	-105.725	-0.233	0.053
-666.032	7.505	0.166	-0.124
-665.018	-146.754	-0.196	-0.017
-664.003	589.042	-0.078	-0.193
-662.989	-27.486	0.301	-0.175
-661.974	3.941	0.262	-0.192
-660.959	34.294	0.193	-0.168
-659.945	469.979	-0.042	-0.095
-658.930	-19.624	0.361	-0.224
-657.916	-32.030	-0.174	0.097
-656.901	800.000	-0.086	0.240
-655.886	800.000	0.093	-0.338
-654.872	-170.884	-0.324	0.011
-653.857	800.000	0.083	-0.309
-652.843	170.744	0.062	0.089
-651.828	800.000	0.028	0.088
-650.814	624.026	0.101	-0.256
-649.799	231.215	-0.070	-0.115
-648.784	108.488	-0.085	0.101
-647.770	-14.659	0.259	0.166
-646.755	-63.683	-0.097	-0.040
-645.741	-77.515	-0.463	-0.160
-644.726	-200.000	0.028	-0.142
-643.711	-93.619	-0.162	0.045
-642.697	-18.365	0.047	0.029
-641.682	-55.476	-0.241	0.108
-640.668	15.582	0.151	-0.119
-639.653	-88.727	0.301	-0.089
-638.638	3.593	0.244	-0.178
-637.624	-38.019	0.097	-0.051
-636.609	800.000	0.059	-0.225
-635.595	-159.022	0.199	-0.011
-634.580	-200.000	0.023	0.119
-633.565	-72.306	0.392	-0.145
-632.551	-47.930	-0.347	-0.168
-631.536	-200.000	-0.024	-0.183
-630.522	-138.142	0.206	0.023
-629.507	-89.059	0.312	-0.092
-628.492	-200.000	0.036	-0.343
-627.478	-2.735	0.182	0.127
-626.463	358.477	-0.011	0.021
-625.449	-3.235	-0.103	-0.072
-624.434	693.018	-0.071	-0.186
-623.419	-200.000	-0.035	-0.237
-622.405	89.152	-0.114	-0.127
-621.390	55.574	-0.207	0.201
-620.376	209.385	-0.156	0.245
-619.361	507.993	0.055	-0.127
-618.346	-154.638	0.399	0.027
-617.332	-126.508	-0.270	-0.040
-616.317	-151.590	-0.124	0.009
-615.303	57.883	-0.188	0.184
-614.288	-157.420	0.166	-0.010
-613.273	-50.128	-0.065	0.031
-612.259	226.423	0.187	-0.303
-611.244	-11.461	-0.121	-0.080
-610.230	-200.000	0.035	0.229
-609.215	-145.967	0.299	0.026
-608.201	363.495	-0.041	0.083
-607.186	136.936	0.052	0.068
-606.171	-92.031	-0.111	0.031
-605.157	-200.000	-0.031	-0.206
-604.142	783.792	-0.117	0.320
-603.128	-65.575	-0.300	-0.120
-602.113	-51.485	0.181	0.084
-601.098	-200.000	0.001	0.270
-600.084	358.679	0.126	-0.251
-599.069	-200.000	0.042	-0.216
-598.055	-9.387	-0.097	0.064
-597.040	800.000	0.059	0.250
-596.025	389.703	-0.054	0.112
-595.011	216.869	-0.068	0.108
-593.996	213.370	-0.207	0.326
-592.982	80.635	-0.298	0.321
-591.967	-141.665	-0.080	-0.008
-590.952	-74.582	0.200	0.072
-589.938	-108.625	-0.241	-0.052
-588.923	-200.000	-0.018	0.172
-587.909	-163.565	-0.098	-0.005
-586.894	800.000	0.040	0.137
-585.879	364.319	0.154	-0.308
-584.865	-139.877	-0.437	-0.046
-583.850	264.730	0.184	0.320
-582.836	-174.025	0.122	0.004
-581.821	-6.780	0.194	-0.131
-580.806	-172.682	-0.180	-0.006
-579.792	-10.328	0.244	0.161
-578.777	-51.005	0.287	-0.134
-577.763	-117.561	-0.090	0.016
-576.748	-40.725	-0.349	-0.180
-575.733	-200.000	0.121	0.542
-574.719	460.477	-0.062	0.138
-573.704	-168.059	-0.093	-0.004
-572.690	19.828	0.118	-0.095
-571.675	-74.200	-0.356	0.128
-570.661	-39.006	-0.102	-0.053
-569.646	-200.000	0.005	0.324
-568.631	800.000	-0.107	0.312
-567.617	800.000	0.091	0.291
-566.602	-9.378	0.133	0.089
-565.588	51.797	0.328	-0.311
-564.573	-105.261	-0.343	-0.078
-563.558	229.713	-0.092	-0.150
-562.544	-1.651	-0.243	-0.171
-561.529	-41.151	0.201	0.103
-560.515	-200.000	-0.049	-0.326
-559.500	94.629	0.184	0.209
-558.485	15.574	-0.219	0.171
-557.471	177.237	-0.201	-0.291
-556.456	-91.433	-0.246	0.070
-555.442	-200.000	-0.012	-0.221
-554.427	-200.000	-0.028	0.364
-553.412	79.539	0.006	0.006
-552.398	-200.000	-0.033	0.290
-551.383	-4.076	-0.118	-0.081
-550.369	280.616	-0.167	-0.297
-549.354	-51.037	0.381	-0.178
-548.339	-9.836	0.195	0.129
-547.325	140.083	-0.132	-0.173
-546.310	503.765	0.137	-0.316
-545.296	-61.656	-0.174	0.073
-544.281	-200.000	-0.002	0.020
-543.266	-41.758	0.215	-0.110
-542.252	-200.000	-0.038	-0.225
-541.237	-200.000	0.011	-0.144
-540.223	-106.905	0.215	0.047
-539.208	37.475	0.133	0.118
-538.193	297.005	0.101	-0.184
-537.179	-67.037	-0.035	-0.014
-536.164	-200.000	-0.025	-0.122
-535.150	35.982	-0.110	-0.096
-534.135	-99.982	0.281	0.070
-533.121	8.294	0.133	-0.100
-532.106	318.036	-0.157	-0.296
-531.091	384.219	0.059	0.121
-530.077	278.489	-0.089	-0.158
-529.062	107.735	-0.146	-0.173
-528.048	13.896	0.127	0.098
-527.033	-84.620	-0.225	0.071
-526.018	-200.000	0.034	-0.202
-525.004	97.777	0.243	-0.279
-523.989	280.106	-0.089	-0.158
-522.975	-63.279	-0.096	0.039
-521.960	-62.508	0.344	-0.142
-520.945	189.682	-0.069	0.103
-519.931	-30.241	0.360	0.204
-518.916	-200.000	-0.029	0.416
-517.902	179.107	-0.035	-0.052
-516.887	-153.771	-0.166	-0.011
-515.872	800.000	0.053	0.194
-514.858	46.436	-0.035	0.032
-513.843	-30.369	-0.336	-0.190
-512.829	-48.558	-0.199	-0.095
-511.814	-72.380	0.278	0.102
-510.799	649.229	-0.191	0.486
-509.785	-200.000	0.003	-0.039
-508.770	256.336	-0.154	0.262
-507.756	800.000	-0.098	0.270
-506.741	1.544	0.307	-0.220
-505.726	43.916	-0.209	0.191
-504.712	-100.220	0.175	-0.043
-503.697	-200.000	-0.009	0.283
-502.683	-12.473	0.312	-0.203
-501.668	118.324	0.053	-0.065
-500.653	-200.000	-0.001	0.066
-499.639	97.182	-0.066	0.076
-498.624	236.781	-0.054	0.089
-497.610	-45.372	0.102	0.050
-496.595	530.593	-0.065	0.153
-495.581	-29.525	-0.117	-0.067
-494.566	-200.000	0.053	0.249
-493.551	773.694	0.016	-0.044
-492.537	244.358	0.099	0.165
-491.522	53.021	0.060	-0.057
-490.508	65.481	-0.071	0.072
-489.493	22.211	-0.105	0.085
-488.478	128.376	0.082	0.104
-487.464	2.591	-0.257	0.185
-486.449	-73.938	0.272	-0.098
-485.435	511.072	-0.121	0.279
-484.420	-63.014	0.171	-0.070
-483.405	-200.000	-0.018	-0.136
-482.391	-90.467	0.273	-0.079
-481.376	800.000	-0.047	-0.135
-480.362	13.860	-0.092	-0.071
-479.347	115.936	0.191	0.232
-478.332	-22.243	0.272	-0.164
-477.318	627.939	-0.089	0.224
-476.303	60.764	0.145	0.143
-475.289	106.080	-0.182	0.214
-474.274	-200.000	0.033	-0.143
-473.259	-4.708	-0.335	-0.229
-472.245	800.000	0.060	-0.237
-471.230	-44.096	0.225	0.112
-470.216	323.560	-0.058	0.109
-469.201	-200.000	0.032	-0.295
-468.186	-84.028	-0.105	-0.033
-467.172	-61.553	-0.189	-0.079
-466.157	7.212	-0.178	-0.132
-465.143	-200.000	0.072	-0.366
-464.128	102.917	0.065	0.075
-463.113	-136.183	-0.096	-0.011
-462.099	14.009	-0.215	0.166
-461.084	-45.564	-0.123	-0.060
-460.070	223.375	-0.071	0.114
-459.055	-64.307	-0.223	0.090
-458.040	56.775	0.150	0.145
-457.026	800.000	-0.074	-0.227
-456.011	81.443	-0.262	-0.281
-454.997	-200.000	0.063	-0.382
-453.982	757.638	0.082	-0.220
-452.968	-32.799	-0.058	0.032
-451.953	529.136	-0.035	0.081
-450.938	-178.076	0.195	-0.005
-449.924	-80.440	-0.253	0.084
-448.909	-5.385	-0.364	0.248
-447.895	-187.544	-0.138	-0.002
-446.880	224.214	0.171	0.275
-445.865	-200.000	-0.002	-0.124
-444.851	-200.000	-0.022	-0.373
-443.836	9.704	0.202	0.152
-442.822	800.000	-0.061	0.235
-441.807	-200.000	-0.011	-0.093
-440.792	101.255	0.053	0.061
-439.778	540.430	0.056	-0.132
-438.763	-78.032	-0.166	-0.057
-437.749	449.095	-0.057	0.123
-436.734	-101.274	-0.261	-0.063
-435.719	57.977	-0.216	-0.209
-434.705	-200.000	0.045	-0.234
-433.690	25.794	0.226	0.187
-432.676	-200.000	0.011	0.249
-431.661	33.010	-0.061	-0.052
-430.646	455.791	0.141	0.309
-429.632	800.000	-0.115	0.362
-428.617	800.000	-0.060	0.204
-427.603	-200.000	-0.005	0.116
-426.588	-140.878	0.467	0.048
-425.573	-40.100	-0.079	-0.041
-424.559	132.544	-0.052	-0.066
-423.544	123.827	0.251	0.312
-422.530	800.000	-0.079	0.326
-421.515	-105.084	-0.140	-0.032
-420.500	-102.939	-0.218	0.051
-419.486	434.629	-0.193	-0.415
-418.471	-144.222	-0.102	-0.009
-417.457	-90.165	0.222	0.064
-416.442	-90.211	0.293	0.085
-415.428	-200.000	-0.031	-0.158
-414.413	800.000	-0.090	-0.251
-413.398	-31.731	-0.176	-0.098
-412.384	278.653	-0.236	-0.417
-411.369	-12.533	-0.218	-0.141
-410.355	101.835	-0.162	-0.187
-409.340	314.665	-0.049	-0.092
-408.325	-200.000	0.042	0.261
-407.311	435.240	0.042	0.091
-406.296	150.668	-0.091	0.123
-405.282	-135.100	0.146	-0.017
-404.267	-68.377	-0.243	0.094
-403.252	-87.000	0.198	0.060
-402.238	-200.000	0.007	0.060
-401.223	-58.267	-0.388	-0.167
-400.209	94.516	-0.063	-0.070
-399.194	-200.000	-0.028	0.206
-398.179	59.760	-0.155	0.152
-397.165	53.561	-0.122	0.116
-396.150	-123.232	-0.080	-0.013
-395.136	427.656	-0.184	-0.393
-394.121	-200.000	-0.001	0.008
-393.106	-6.961	-0.130	-0.088
-392.092	296.112	-0.047	0.086
-391.077	-72.344	0.529	0.194
-390.063	-44.774	0.329	-0.162
-389.048	156.251	0.133	-0.182
-388.033	165.866	-0.064	-0.089
-387.019	-200.000	0.003	-0.022
-386.004	-200.000	0.018	0.212
-384.990	9.255	-0.296	-0.221
-383.975	-69.627	0.126	0.048
-382.960	339.906	0.090	-0.173
-381.946	-75.714	-0.135	-0.047
-380.931	21.213	0.181	-0.145
-379.917	79.971	-0.119	-0.126
-378.902	-20.337	-0.217	0.132
-377.888	2.323	0.353	0.253
-376.873	-106.843	-0.179	0.039
-375.858	-200.000	0.000	-0.133
-374.844	-200.000	0.020	0.139
-373.829	295.013	0.060	0.109
-372.815	108.596	-0.114	-0.135
-371.800	-146.896	0.106	0.009
-370.785	-96.498	0.040	0.010
-369.771	-43.779	-0.220	0.110
-368.756	-91.571	-0.108	-0.030
-367.742	59.411	-0.077	-0.075
-366.727	-17.787	0.188	0.117
-365.712	93.250	0.108	0.121
-364.698	-8.588	-0.145	-0.097
-363.683	-200.000	-0.058	-0.294
-362.669	-116.535	-0.221	0.040
-361.654	210.632	0.121	-0.188
-360.639	800.000	0.083	0.333
-359.625	-149.715	0.418	-0.032
-358.610	-37.805	-0.199	-0.105
-357.596	105.433	0.072	-0.084
-356.581	-83.457	-0.215	0.068
-355.566	-200.000	-0.061	0.288
-354.552	-4.573	0.141	0.096
-353.537	-43.034	-0.365	-0.183
-352.523	-111.108	0.367	-0.074
-351.508	-200.000	0.093	-0.531
-350.493	-109.934	0.061	-0.013
-349.479	800.000	0.052	0.221
-348.464	344.680	-0.126	-0.244
-347.450	-65.616	-0.189	0.075
-346.435	-66.172	0.204	0.080
-345.420	17.442	-0.132	-0.104
-344.406	-94.520	-0.218	-0.059
-343.391	65.739	-0.149	0.149
-342.377	303.919	-0.133	0.244
-341.362	-74.379	-0.050	-0.018
-340.348	461.131	0.068	0.150
-339.333	-2.308	0.161	0.111
-338.318	-200.000	-0.058	-0.299
-337.304	-6.771	0.104	0.070
-336.289	-86.868	-0.370	-0.112
-335.275	800.000	0.128	-0.410
-334.260	-118.422	0.239	-0.042
-333.245	-74.365	-0.407	-0.145
-332.231	111.704	-0.102	0.121
-331.216	-46.476	0.263	0.127
-330.202	251.103	-0.081	0.136
-329.187	-200.000	-0.009	-0.084
-328.172	86.450	-0.040	0.043
-327.158	8.531	0.230	-0.171
-326.143	-91.530	0.014	-0.004
-325.129	-96.704	-0.017	-0.004
-324.114	-50.541	-0.156	-0.072
-323.099	106.038	-0.125	0.146
-322.085	475.951	-0.111	0.247
-321.070	-200.000	-0.029	-0.189
-320.056	-127.635	0.301	-0.043
-319.041	182.552	-0.047	0.069
-318.026	-74.903	-0.151	-0.054
-317.012	-200.000	0.020	0.177
-315.997	-95.942	-0.201	0.053
-314.983	784.982	0.068	0.184
-313.968	262.180	0.169	-0.288
-312.953	-200.000	-0.027	-0.440
-311.939	-8.753	-0.140	0.093
-310.924	7.398	-0.230	0.169
-309.910	-94.073	-0.273	0.074
-308.895	800.000	0.090	-0.279
-307.880	-67.501	0.299	-0.116
-306.866	-55.837	-0.214	-0.094
-305.851	-200.000	-0.045	0.380
-304.837	109.311	0.087	-0.103
-303.822	-200.000	0.027	0.310
-302.807	-131.706	0.065	-0.008
-301.793	-115.381	0.418	-0.078
-300.778	-83.035	-0.164	0.052
-299.764	281.456	-0.108	0.191
-298.749	-181.747	0.281	-0.005
-297.735	-200.000	0.023	-0.339
-296.720	474.203	0.135	0.299
-295.705	183.159	-0.047	-0.068
-294.691	123.332	-0.112	-0.139
-293.676	-200.000	-0.031	0.453
-292.662	246.746	-0.086	-0.142
-291.647	-200.000	-0.017	-0.147
-290.632	-126.962	0.279	0.040
-289.618	800.000	-0.056	-0.192
-288.603	-39.138	-0.278	0.144
-287.589	-200.000	0.002	-0.203
-286.574	35.286	0.157	0.136
-285.559	-82.559	-0.111	0.036
-284.545	0.021	-0.159	0.112
-283.530	-96.781	0.128	-0.033
-282.516	-71.589	-0.207	0.076
-281.501	-175.530	0.268	-0.007
-280.486	36.288	-0.157	0.136
-279.472	687.465	0.095	0.244
-278.457	-200.000	0.016	0.092
-277.443	83.196	0.183	0.197
-276.428	-2.168	-0.238	-0.165
-275.413	800.000	-0.043	-0.150
-274.399	67.261	0.191	-0.191
-273.384	-200.000	-0.035	-0.173
-272.370	79.849	0.230	0.243
-271.355	-145.583	0.036	0.003
-270.340	-200.000	0.013	-0.065
-269.326	-25.270	0.215	-0.125
-268.311	-47.993	0.463	-0.221
-267.297	-120.291	0.015	-0.003
-266.282	-100.778	0.176	0.043
-265.267	620.293	0.075	-0.186
-264.253	-171.220	0.272	-0.009
-263.238	1.733	-0.293	0.208
-262.224	-200.000	0.017	-0.614
-261.209	-115.886	-0.248	-0.046
-260.195	44.993	-0.150	-0.136
-259.180	-70.030	0.354	0.133
-258.165	93.988	0.046	-0.051
-257.151	122.440	0.120	0.147
-256.136	-18.636	0.340	-0.209
-255.122	-125.371	-0.311	0.047
-254.107	-200.000	-0.011	-0.246
-253.092	-188.969	0.234	0.003
-252.078	-82.437	0.192	-0.062
-251.063	-195.439	-0.157	0.001
-250.049	-116.883	0.225	0.040
-249.034	-200.000	0.052	-0.328
-248.019	291.281	0.173	0.311
-247.005	-55.070	-0.102	-0.045
-245.990	264.062	0.040	-0.069
-244.976	-70.581	0.275	-0.102
-243.961	112.246	0.125	0.149
-242.946	-83.567	-0.271	-0.085
-241.932	45.909	-0.218	0.199
-240.917	-164.758	-0.317	0.014
-239.903	17.220	-0.055	-0.043
-238.888	-200.000	0.046	0.260
-237.873	156.115	-0.281	0.381
-236.859	800.000	-0.083	0.323
-235.844	-50.325	-0.072	0.033
-234.830	13.801	0.139	0.107
-233.815	800.000	0.020	0.069
-232.800	-200.000	0.069	-0.540
-231.786	-137.773	-0.317	-0.035
-230.771	-134.663	0.167	0.020
-229.757	-141.575	0.378	-0.038
-228.742	88.183	-0.084	0.092
-227.727	249.897	0.140	0.234
-226.713	-55.940	0.216	-0.095
-225.698	199.496	0.120	0.182
-224.684	-166.772	0.184	-0.007
-223.669	-25.900	0.146	-0.085
-222.655	-111.799	-0.094	0.019
-221.640	-200.000	-0.005	0.091
-220.625	-126.745	-0.235	-0.034
-219.611	-182.291	0.405	-0.007
-218.596	82.375	-0.121	-0.129
-217.582	97.536	0.161	-0.182
-216.567	-141.761	-0.140	-0.014
-215.552	309.673	-0.226	-0.415
-214.538	42.309	0.113	-0.101
-213.523	800.000	-0.079	-0.287
-212.509	168.761	0.056	-0.078
-211.494	275.604	0.008	0.014
-210.479	800.000	0.097	-0.341
-209.465	-200.000	0.014	0.329
-208.450	-15.045	0.189	0.119
-207.436	99.889	0.057	0.065
-206.421	183.009	0.089	-0.129
-205.406	-66.398	0.290	-0.113
-204.392	800.000	0.058	0.159
-203.377	-109.173	0.164	0.034
-202.363	6.759	-0.295	0.216
-201.348	157.427	0.073	-0.099
-200.333	-9.234	0.240	0.157
-199.319	-200.000	-0.014	0.106
-198.304	-76.537	-0.225	-0.078
-197.290	-200.000	0.050	-0.311
-196.275	715.479	0.070	0.183
-195.260	623.943	0.050	0.124
-194.246	800.000	0.050	0.210
-193.231	800.000	0.046	0.178
-192.217	-151.801	0.245	-0.018
-191.202	-6.707	0.313	0.209
-190.187	-106.700	0.231	0.051
-189.173	-200.000	-0.056	0.359
-188.158	-89.641	0.114	0.033
-187.144	-167.924	0.127	0.005
-186.129	61.380	0.026	0.026
-185.114	-200.000	0.022	0.132
-184.100	180.237	-0.132	0.191
-183.085	366.476	0.093	0.184
-182.071	-73.420	-0.190	0.068
-181.056	502.583	0.034	0.077
-180.042	-26.157	0.202	0.117
-179.027	369.073	-0.066	0.131
-178.012	6.621	-0.136	0.099
-176.998	11.181	-0.052	-0.039
-175.983	-104.303	-0.365	-0.083
-174.969	-200.000	-0.016	0.126
-173.954	-66.496	-0.084	-0.033
-172.939	800.000	-0.032	0.117
-171.925	-34.041	-0.218	-0.118
-170.910	800.000	-0.034	0.125
-169.896	-48.401	0.058	-0.027
-168.881	800.000	-0.026	-0.109
-167.866	800.000	-0.082	-0.230
-166.852	-106.762	0.151	-0.033
-165.837	-14.135	-0.153	0.097
-164.823	-154.751	0.121	-0.008
-163.808	800.000	0.086	0.251
-162.793	141.756	0.038	0.050
-161.779	-73.080	0.211	0.076
-160.764	-151.710	-0.105	-0.008
-159.750	-200.000	0.014	0.118
-158.735	-200.000	0.011	0.184
-157.720	258.135	-0.198	-0.334
-156.706	-200.000	0.046	-0.401
-155.691	-200.000	-0.005	-0.030
-154.677	-200.000	0.040	-0.254
-153.662	800.000	0.116	-0.346
-152.647	-78.962	-0.168	0.056
-151.633	640.471	0.054	-0.134
-150.618	-81.379	-0.336	0.109
-149.604	102.844	0.122	0.140
-148.589	30.939	-0.304	0.256
-147.574	-104.389	0.079	-0.018
-146.560	-200.000	0.025	0.141
-145.545	50.216	0.103	-0.096
-144.531	176.318	0.119	-0.170
-143.516	-200.000	-0.001	0.145
-142.502	40.969	0.280	-0.248
-141.487	-200.000	-0.035	-0.186
-140.472	384.660	0.072	0.145
-139.458	343.609	-0.066	0.127
-138.443	-119.931	0.167	0.028
-137.429	500.386	-0.038	-0.087
-136.414	-119.246	-0.258	0.044
-135.399	154.300	-0.337	0.453
-134.385	205.179	-0.102	-0.155
-133.370	23.275	0.151	0.121
-132.356	153.579	0.142	-0.191
-131.341	-12.517	-0.217	0.138
-130.326	-200.000	0.015	0.080
-129.312	-65.837	-0.203	0.079
-128.297	-46.365	0.220	0.106
-127.283	-159.616	0.160	0.009
-126.268	-82.772	-0.030	0.009
-125.253	141.346	-0.072	0.093
-124.239	-200.000	0.018	0.163
-123.224	-92.762	-0.339	-0.093
-122.210	-93.955	0.385	0.104
-121.195	77.979	-0.150	0.157
