DTS Sentinel unit serial number:	SN413079Multiplexer serial number:	ORYXHardware model number:	OX4-SRSoftware version number:	ORYX F/W v4.00 Oryx Data Collector v3.7.2.0data status	okinstallation	princeton_trtdifferential loss correction	single-endedforward channel	channel 2reverse channel	N/Adate	2019/10/01time	00:03:35forward acquisition time	60.00reverse acquisition time	0.00gamma	496.2192k internal	0.2336k external	0.2336temperature offset calibration	0.9945default loss term (dB/km)	0.3790temperature slope calibration	1.0000multiplexer offset coefficient	1.0000multiplexer slope coefficient	1.0000fibre end	0.00T internal ref (°C)	27.12T ext. ref 1 (°C)	4.06T ext. ref 2 (°C)	21.06length (m)	temperature (°C)	Stokes	anti-Stokes-747.200	-114.032	0.109	0.021
-746.185	153.212	-0.136	-0.186
-745.171	-72.915	0.038	-0.014
-744.156	-151.235	-0.050	0.004
-743.142	13.671	0.158	0.123
-742.127	-200.000	-0.002	0.404
-741.112	-179.350	0.271	0.006
-740.098	-160.892	-0.759	-0.040
-739.083	-200.000	0.048	-0.397
-738.069	356.774	-0.094	-0.188
-737.054	-8.963	0.146	0.098
-736.039	-7.032	-0.211	0.144
-735.025	-24.410	0.231	-0.138
-734.010	-134.076	0.215	0.027
-732.996	-200.000	-0.059	-0.305
-731.981	73.038	-0.246	-0.258
-730.966	-27.837	0.199	0.116
-729.952	-38.044	-0.341	-0.182
-728.937	-200.000	-0.014	0.148
-727.923	-52.643	0.208	-0.096
-726.908	-0.429	-0.358	-0.255
-725.894	-156.800	-0.143	-0.009
-724.879	583.920	-0.050	-0.124
-723.864	-124.914	-0.117	-0.018
-722.850	434.256	0.139	-0.303
-721.835	-200.000	-0.083	-0.404
-720.821	81.007	0.167	-0.181
-719.806	-60.009	0.172	-0.074
-718.791	24.060	0.365	0.302
-717.777	-52.362	-0.254	-0.118
-716.762	507.096	0.077	0.178
-715.748	-200.000	-0.003	0.116
-714.733	-143.284	0.391	-0.038
-713.718	33.336	0.068	-0.059
-712.704	35.684	-0.086	0.076
-711.689	-200.000	0.019	0.108
-710.675	473.542	-0.141	-0.319
-709.660	152.091	-0.201	-0.275
-708.645	199.020	-0.103	0.158
-707.631	-200.000	0.003	0.091
-706.616	800.000	0.042	-0.173
-705.602	800.000	-0.036	0.130
-704.587	43.241	0.015	-0.014
-703.572	-200.000	0.019	-0.338
-702.558	60.650	0.109	0.109
-701.543	171.317	0.225	0.323
-700.529	-47.415	0.205	0.100
-699.514	-200.000	0.010	-0.148
-698.499	262.907	-0.114	-0.199
-697.485	-32.276	0.340	-0.191
-696.470	159.746	0.139	-0.194
-695.456	-72.135	-0.163	-0.061
-694.441	51.440	-0.118	0.112
-693.426	396.479	-0.083	0.174
-692.412	-65.474	-0.184	0.074
-691.397	-42.114	0.212	0.109
-690.383	153.888	-0.043	-0.059
-689.368	-200.000	0.009	-0.364
-688.354	-61.562	0.295	-0.124
-687.339	-200.000	-0.010	-0.112
-686.324	299.018	-0.081	0.149
-685.310	-200.000	-0.003	0.109
-684.295	-200.000	0.027	0.189
-683.281	-25.419	-0.060	0.036
-682.266	800.000	0.080	-0.338
-681.251	272.751	0.173	-0.306
-680.237	219.294	-0.083	-0.133
-679.222	-200.000	-0.190	-0.001
-678.208	-103.902	0.277	-0.065
-677.193	374.992	-0.126	-0.256
-676.178	3.595	0.115	-0.084
-675.164	106.783	-0.169	0.201
-674.149	-66.588	0.272	-0.108
-673.135	15.134	-0.150	-0.118
-672.120	259.190	0.076	0.132
-671.105	-158.916	-0.091	-0.005
-670.091	48.123	0.079	0.074
-669.076	138.016	-0.151	-0.198
-668.062	800.000	-0.027	-0.085
-667.047	-200.000	-0.016	0.313
-666.032	-200.000	0.009	0.048
-665.018	-145.630	0.351	0.031
-664.003	800.000	-0.056	-0.232
-662.989	41.544	0.285	0.258
-661.974	-45.496	0.169	-0.084
-660.959	-34.054	-0.263	-0.145
-659.945	-173.483	-0.626	0.019
-658.930	-200.000	-0.081	-0.435
-657.916	70.047	-0.275	-0.284
-656.901	-5.308	0.079	-0.054
-655.886	800.000	0.017	0.059
-654.872	337.427	-0.181	0.353
-653.857	-89.041	0.297	-0.088
-652.843	14.111	0.147	-0.114
-651.828	800.000	0.114	-0.357
-650.814	-200.000	-0.035	-0.404
-649.799	-200.000	-0.033	0.223
-648.784	474.407	-0.182	-0.411
-647.770	-200.000	0.000	0.036
-646.755	163.325	0.082	-0.115
-645.741	-200.000	0.007	0.071
-644.726	387.503	0.064	0.133
-643.711	714.155	-0.054	0.144
-642.697	352.348	-0.037	-0.074
-641.682	800.000	-0.067	-0.244
-640.668	-200.000	0.017	-0.087
-639.653	-100.886	-0.237	-0.058
-638.638	-129.419	0.326	-0.045
-637.624	-124.449	-0.347	-0.054
-636.609	800.000	0.055	0.185
-635.595	-74.276	0.034	-0.012
-634.580	-57.289	-0.379	0.167
-633.565	-133.795	-0.282	0.035
-632.551	-128.336	-0.219	-0.031
-631.536	-79.144	0.311	-0.106
-630.522	800.000	0.087	0.253
-629.507	-100.547	-0.087	0.022
-628.492	-53.817	0.108	0.049
-627.478	201.586	-0.113	0.174
-626.463	27.198	-0.369	0.309
-625.449	705.384	-0.037	0.098
-624.434	-200.000	-0.008	0.049
-623.419	179.606	-0.134	0.197
-622.405	-73.670	-0.098	-0.036
-621.390	-16.353	-0.130	-0.083
-620.376	-92.508	0.061	-0.017
-619.361	-91.581	0.044	-0.012
-618.346	72.727	0.162	0.169
-617.332	-67.854	-0.157	-0.061
-616.317	-200.000	0.009	0.111
-615.303	-58.092	-0.174	0.076
-614.288	-59.090	0.133	-0.057
-613.273	107.176	0.138	0.164
-612.259	-107.701	-0.228	-0.050
-611.244	-44.327	0.095	0.048
-610.230	20.580	-0.075	0.061
-609.215	-114.023	0.174	-0.034
-608.201	-39.452	-0.245	-0.128
-607.186	15.396	-0.026	0.021
-606.171	-200.000	-0.029	-0.232
-605.157	-144.645	-0.305	-0.028
-604.142	114.841	0.128	-0.156
-603.128	-200.000	0.008	-0.048
-602.113	-133.190	-0.236	0.030
-601.098	122.072	-0.178	-0.223
-600.084	-188.873	0.303	-0.004
-599.069	-200.000	-0.022	-0.330
-598.055	474.428	-0.062	0.140
-597.040	199.697	0.056	-0.086
-596.025	282.597	0.175	-0.313
-595.011	175.284	0.165	-0.239
-593.996	27.691	-0.176	0.148
-592.982	-178.313	-0.384	-0.009
-591.967	-157.704	0.422	0.025
-590.952	-200.000	0.013	-0.247
-589.938	-200.000	-0.017	-0.120
-588.923	800.000	0.059	0.242
-587.909	-15.518	-0.063	0.040
-586.894	-80.843	-0.262	-0.087
-585.879	301.532	-0.075	-0.137
-584.865	30.654	-0.156	-0.134
-583.850	29.585	-0.183	0.155
-582.836	107.416	0.113	0.134
-581.821	-128.939	-0.410	0.057
-580.806	54.088	-0.148	0.142
-579.792	549.995	0.078	0.186
-578.777	55.371	0.072	-0.069
-577.763	171.648	-0.151	-0.216
-576.748	482.950	0.075	0.171
-575.733	-32.573	0.019	-0.010
-574.719	370.789	-0.126	-0.255
-573.704	-39.750	-0.207	-0.108
-572.690	-200.000	-0.030	-0.393
-571.675	-200.000	0.010	0.138
-570.661	-107.872	0.275	-0.060
-569.646	-200.000	-0.033	0.284
-568.631	-115.746	-0.047	-0.009
-567.617	94.129	0.146	-0.165
-566.602	-134.561	-0.249	0.030
-565.588	273.238	-0.214	-0.377
-564.573	-157.684	-0.161	-0.010
-563.558	269.052	0.121	-0.211
-562.544	-111.897	0.250	-0.050
-561.529	-114.885	0.193	-0.037
-560.515	220.761	-0.113	-0.180
-559.500	-151.909	0.083	-0.006
-558.485	322.178	-0.094	0.179
-557.471	-35.376	-0.308	-0.167
-556.456	59.283	-0.196	-0.192
-555.442	47.839	-0.120	-0.111
-554.427	-23.965	-0.144	0.086
-553.412	42.445	-0.158	0.143
-552.398	-18.433	-0.151	0.094
-551.383	244.148	0.137	-0.229
-550.369	-200.000	-0.003	0.255
-549.354	-200.000	-0.004	-0.044
-548.339	-45.629	0.218	-0.107
-547.325	-89.407	0.216	0.063
-546.310	-200.000	0.027	-0.366
-545.296	40.322	-0.258	-0.231
-544.281	-5.434	0.151	-0.103
-543.266	226.326	-0.137	0.222
-542.252	-97.667	0.388	-0.100
-541.237	-200.000	0.020	-0.141
-540.223	-200.000	-0.021	-0.236
-539.208	223.245	-0.063	0.100
-538.193	-192.948	-0.487	0.004
-537.179	376.288	0.127	-0.257
-536.164	131.970	-0.070	0.089
-535.150	800.000	-0.117	-0.334
-534.135	90.222	-0.160	-0.178
-533.121	-121.641	-0.389	0.064
-532.106	800.000	-0.025	-0.082
-531.091	-21.704	-0.117	0.071
-530.077	-31.971	0.064	0.036
-529.062	52.458	0.171	0.163
-528.048	800.000	-0.148	0.473
-527.033	-150.878	0.071	0.005
-526.018	-200.000	0.011	0.125
-525.004	82.544	0.020	0.021
-523.989	295.726	0.203	0.371
-522.975	-27.984	-0.359	-0.207
-521.960	762.186	0.168	-0.455
-520.945	-200.000	0.019	-0.142
-519.931	-57.898	-0.121	0.052
-518.916	163.875	-0.068	-0.095
-517.902	273.599	-0.188	0.331
-516.887	-200.000	0.066	-0.384
-515.872	-166.634	0.185	-0.008
-514.858	-200.000	-0.025	0.234
-513.843	-200.000	-0.002	0.098
-512.829	-35.694	0.154	-0.083
-511.814	-125.079	-0.371	-0.057
-510.799	311.985	0.102	0.191
-509.785	-105.686	-0.094	0.021
-508.770	-91.820	-0.168	0.047
-507.756	15.766	0.287	-0.225
-506.741	800.000	0.121	0.340
-505.726	13.213	0.202	-0.155
-504.712	19.479	-0.239	0.191
-503.697	789.750	-0.059	-0.160
-502.683	-200.000	-0.020	-0.094
-501.668	462.535	-0.086	-0.190
-500.653	6.677	0.037	-0.027
-499.639	-12.009	0.245	-0.159
-498.624	312.854	-0.027	0.051
-497.610	-81.811	-0.546	-0.178
-496.595	-162.397	0.077	-0.004
-495.581	184.832	-0.076	0.112
-494.566	-97.648	0.064	0.016
-493.551	243.217	0.170	-0.284
-492.537	-7.855	0.151	0.101
-491.522	-200.000	0.022	0.115
-490.508	42.714	-0.114	0.103
-489.493	-200.000	0.029	0.167
-488.478	728.620	0.047	0.124
-487.464	-200.000	-0.008	0.082
-486.449	420.115	0.145	-0.308
-485.435	55.479	0.141	-0.135
-484.420	-200.000	-0.002	-0.075
-483.405	-200.000	0.065	-0.316
-482.391	168.609	-0.172	-0.244
-481.376	-200.000	-0.040	-0.193
-480.362	-44.561	-0.257	-0.128
-479.347	-200.000	-0.007	-0.084
-478.332	-64.141	0.078	-0.032
-477.318	-200.000	-0.020	0.362
-476.303	632.757	-0.102	0.257
-475.289	-200.000	0.001	-0.142
-474.274	-89.092	0.089	-0.026
-473.259	246.414	-0.065	0.108
-472.245	-53.054	0.096	-0.044
-471.230	249.338	-0.203	0.341
-470.216	234.927	0.082	0.134
-469.201	133.801	-0.183	-0.235
-468.186	173.289	-0.094	0.134
-467.172	103.042	0.091	0.106
-466.157	-67.797	-0.169	-0.066
-465.143	-55.110	0.136	-0.061
-464.128	-6.867	-0.305	-0.206
-463.113	-76.223	0.150	0.052
-462.099	148.515	0.165	0.221
-461.084	-200.000	0.020	0.272
-460.070	-108.938	-0.063	0.013
-459.055	-200.000	0.024	0.176
-458.040	-39.715	-0.350	-0.182
-457.026	-54.932	0.212	0.095
-456.011	800.000	0.027	0.077
-454.997	-168.722	-0.219	0.008
-453.982	-200.000	0.007	0.042
-452.968	-41.710	0.241	-0.123
-451.953	-141.144	-0.167	0.017
-450.938	-108.928	0.127	0.027
-449.924	315.879	0.206	0.387
-448.909	36.194	0.181	0.158
-447.895	-10.000	0.089	0.058
-446.880	60.939	-0.343	0.338
-445.865	58.823	-0.241	-0.235
-444.851	119.893	0.126	-0.155
-443.836	753.618	-0.037	-0.100
-442.822	107.958	-0.084	-0.100
-441.807	-200.000	-0.012	0.114
-440.792	-30.781	0.212	0.119
-439.778	192.616	0.117	0.175
-438.763	-79.959	-0.544	-0.181
-437.749	268.411	0.103	-0.180
-436.734	-41.306	0.371	-0.190
-435.719	-200.000	-0.047	-0.435
-434.705	719.050	0.140	-0.369
-433.690	-81.494	0.126	0.041
-432.676	353.833	-0.058	0.115
-431.661	702.660	-0.047	-0.124
-430.646	-73.629	0.310	0.112
-429.632	433.751	-0.169	0.363
-428.617	-200.000	0.037	-0.195
-427.603	265.444	-0.122	0.212
-426.588	800.000	0.154	0.486
-425.573	93.654	0.210	0.236
-424.559	-200.000	-0.010	0.096
-423.544	-157.747	0.125	-0.007
-422.530	673.880	-0.168	0.431
-421.515	800.000	0.033	-0.098
-420.500	55.742	0.068	0.065
-419.486	258.456	0.123	-0.210
-418.471	-3.892	0.337	-0.232
-417.457	-78.474	-0.149	-0.051
-416.442	781.022	-0.062	-0.169
-415.428	113.701	-0.096	-0.115
-414.413	25.237	0.253	-0.208
-413.398	800.000	0.130	-0.364
-412.384	-200.000	0.107	0.000
-411.369	800.000	0.019	0.064
-410.355	-12.001	-0.232	0.151
-409.340	542.856	0.107	-0.253
-408.325	800.000	0.074	-0.318
-407.311	-134.381	-0.128	0.016
-406.296	800.000	-0.022	0.071
-405.282	352.351	0.068	0.134
-404.267	-55.871	0.342	0.151
-403.252	800.000	-0.097	0.308
-402.238	-130.308	0.370	-0.050
-401.223	-124.012	0.312	0.049
-400.209	-104.390	0.170	-0.039
-399.194	235.789	0.102	-0.167
-398.179	-4.592	0.289	-0.198
-397.165	25.713	-0.124	0.102
-396.150	16.145	0.334	-0.260
-395.136	800.000	0.104	-0.342
-394.121	-106.284	0.166	-0.037
-393.106	-200.000	-0.012	0.268
-392.092	-200.000	-0.013	0.163
-391.077	-108.733	-0.054	-0.012
-390.063	135.483	-0.117	-0.150
-389.048	-45.049	0.225	0.111
-388.033	800.000	0.113	-0.364
-387.019	96.853	-0.175	-0.199
-386.004	29.579	0.257	-0.216
-384.990	-65.807	-0.144	0.057
-383.975	-130.385	-0.508	-0.068
-382.960	507.947	-0.060	-0.139
-381.946	-107.972	0.222	0.048
-380.931	-111.345	0.392	0.079
-379.917	-200.000	-0.010	0.206
-378.902	-200.000	0.033	0.292
-377.888	251.656	0.089	0.149
-376.873	-200.000	-0.001	-0.035
-375.858	-200.000	-0.023	-0.145
-374.844	272.389	-0.167	0.292
-373.829	53.895	-0.282	0.268
-372.815	-200.000	-0.084	0.390
-371.800	800.000	-0.016	0.058
-370.785	-10.460	0.312	0.205
-369.771	-200.000	-0.009	0.298
-368.756	800.000	0.044	0.135
-367.742	-20.118	-0.114	-0.070
-366.727	223.431	0.243	-0.389
-365.712	-147.422	-0.274	0.023
-364.698	54.017	0.140	0.134
-363.683	280.385	-0.062	0.110
-362.669	1.406	-0.025	0.018
-361.654	-200.000	0.071	-0.329
-360.639	159.516	0.086	-0.119
-359.625	-68.611	0.100	0.038
-358.610	-94.095	-0.135	-0.037
-357.596	-18.517	-0.370	0.228
-356.581	1.698	-0.322	-0.229
-355.566	32.482	-0.240	0.205
-354.552	511.631	0.044	-0.102
-353.537	-62.654	-0.154	0.063
-352.523	-66.314	-0.141	-0.056
-351.508	23.387	0.292	0.238
-350.493	156.832	0.151	0.207
-349.479	777.719	-0.099	-0.267
-348.464	800.000	-0.063	0.249
-347.450	7.488	-0.045	0.033
-346.435	-88.711	-0.253	0.074
-345.420	410.524	-0.128	0.268
-344.406	91.221	-0.177	0.196
-343.391	155.282	0.119	0.162
-342.377	-200.000	0.005	0.352
-341.362	-200.000	0.012	-0.063
-340.348	-200.000	0.018	-0.085
-339.333	-200.000	0.062	0.429
-338.318	227.581	0.015	-0.024
-337.304	800.000	0.089	-0.309
-336.289	-200.000	0.020	-0.216
-335.275	61.829	-0.163	0.160
-334.260	4.728	-0.144	0.104
-333.245	800.000	0.049	0.182
-332.231	-158.125	-0.051	-0.003
-331.216	-200.000	0.022	0.234
-330.202	-200.000	-0.019	0.180
-329.187	-90.869	-0.261	-0.074
-328.172	-200.000	0.030	-0.305
-327.158	2.891	-0.154	-0.110
-326.143	51.059	-0.184	0.172
-325.129	-17.388	-0.080	0.050
-324.114	-24.959	0.144	-0.084
-323.099	-17.568	0.225	-0.140
-322.085	-52.901	-0.238	0.108
-321.070	-55.963	-0.148	-0.065
-320.056	-6.647	0.075	-0.050
-319.041	-200.000	0.005	0.030
-318.026	-200.000	0.006	-0.064
-317.012	-81.390	0.216	0.070
-315.997	-200.000	0.068	0.297
-314.983	-155.003	0.239	0.015
-313.968	-93.814	-0.170	-0.046
-312.953	-179.376	0.051	-0.001
-311.939	-111.969	-0.279	0.056
-310.924	800.000	0.062	-0.200
-309.910	-40.683	-0.259	-0.133
-308.895	198.277	-0.030	0.046
-307.880	664.327	-0.094	-0.240
-306.866	32.362	-0.193	0.165
-305.851	-42.344	0.119	-0.060
-304.837	-200.000	-0.016	0.318
-303.822	49.341	-0.082	-0.076
-302.807	800.000	0.174	0.479
-301.793	55.534	0.059	-0.056
-300.778	-43.461	0.113	-0.057
-299.764	-159.841	-0.421	-0.023
-298.749	-40.274	0.230	0.118
-297.735	-33.876	-0.048	-0.026
-296.720	177.471	0.189	-0.271
-295.705	-144.662	0.255	0.023
-294.691	604.476	-0.119	-0.292
-293.676	134.135	-0.081	0.103
-292.662	-200.000	0.009	0.227
-291.647	-91.611	0.274	0.077
-290.632	-38.296	-0.169	-0.088
-289.618	35.068	0.173	-0.149
-288.603	-69.782	0.120	-0.045
-287.589	-140.319	-0.164	-0.017
-286.574	281.109	-0.085	-0.150
-285.559	-200.000	-0.024	0.168
-284.545	-77.002	-0.242	0.083
-283.530	44.600	-0.316	-0.286
-282.516	692.842	-0.177	-0.458
-281.501	-132.390	0.400	-0.051
-280.486	-79.107	0.250	0.084
-279.472	800.000	0.075	0.271
-278.457	421.176	0.065	-0.137
-277.443	55.764	0.066	-0.063
-276.428	-73.330	0.370	0.134
-275.413	-23.863	-0.208	0.123
-274.399	537.910	0.088	0.207
-273.384	-108.623	-0.039	0.008
-272.370	-27.726	0.043	0.025
-271.355	-40.342	-0.018	-0.009
-270.340	-153.658	0.215	0.015
-269.326	800.000	0.062	0.170
-268.311	-200.000	0.003	0.260
-267.297	-200.000	-0.001	-0.261
-266.282	512.474	0.073	-0.168
-265.267	-39.695	-0.469	0.242
-264.253	192.827	0.112	0.167
-263.238	127.884	0.171	-0.215
-262.224	-65.674	0.037	0.015
-261.209	800.000	0.021	0.061
-260.195	-200.000	-0.024	0.129
-259.180	11.129	-0.208	0.157
-258.165	-91.251	-0.116	-0.033
-257.151	-117.350	0.268	0.048
-256.136	592.861	-0.108	0.263
-255.122	-200.000	-0.014	-0.192
-254.107	-200.000	0.023	-0.213
-253.092	-102.132	0.090	-0.021
-252.078	-38.054	0.452	0.236
-251.063	-192.616	0.176	-0.002
-250.049	-45.908	-0.072	-0.035
-249.034	-18.676	-0.123	0.076
-248.019	-163.106	0.245	0.012
-247.005	-162.321	-0.249	0.012
-245.990	518.887	-0.108	0.248
-244.976	-16.052	0.311	0.195
-243.961	-103.900	0.707	-0.163
-242.946	-16.139	-0.279	0.174
-241.932	-24.547	-0.126	0.074
-240.917	-3.444	0.148	-0.101
-239.903	-74.049	-0.214	-0.076
-238.888	-30.136	0.239	-0.134
-237.873	138.714	0.135	0.174
-236.859	-200.000	-0.027	0.270
-235.844	98.091	0.117	0.133
-234.830	730.686	0.057	0.151
-233.815	11.288	-0.249	0.188
-232.800	-133.663	0.474	-0.058
-231.786	141.468	0.016	0.021
-230.771	-200.000	-0.015	0.171
-229.757	-200.000	-0.005	-0.051
-228.742	-117.153	-0.191	0.034
-227.727	-66.332	0.188	0.074
-226.713	706.792	0.129	-0.335
-225.698	-87.622	0.153	-0.045
-224.684	-93.468	-0.360	-0.098
-223.669	-111.827	0.161	-0.032
-222.655	135.732	0.168	-0.215
-221.640	-169.093	-0.225	0.008
-220.625	-114.105	0.345	0.066
-219.611	-77.854	0.353	-0.120
-218.596	-200.000	0.066	-0.383
-217.582	-146.701	0.077	0.007
-216.567	-200.000	-0.044	0.304
-215.552	-0.168	-0.359	-0.251
-214.538	-17.377	-0.183	-0.114
-213.523	156.788	-0.007	0.010
-212.509	633.084	0.122	0.303
-211.494	95.277	-0.072	0.081
-210.479	-200.000	-0.023	-0.245
-209.465	-200.000	0.021	-0.164
-208.450	-200.000	0.032	-0.282
-207.436	16.403	0.219	0.170
-206.421	-101.315	0.378	-0.091
-205.406	84.316	0.075	0.081
-204.392	-105.548	-0.033	0.007
-203.377	800.000	0.070	-0.257
-202.363	-52.315	0.410	0.187
-201.348	127.903	-0.069	-0.087
-200.333	800.000	-0.232	-0.679
-199.319	-70.847	0.464	-0.172
-198.304	191.050	-0.222	0.328
-197.290	-87.618	-0.128	-0.038
-196.275	585.591	0.177	-0.428
-195.260	-79.076	-0.142	0.047
-194.246	-65.892	0.292	0.115
-193.231	155.563	0.121	0.164
-192.217	38.582	0.222	0.195
-191.202	579.304	0.081	-0.194
-190.187	-97.890	0.304	-0.077
-189.173	-74.118	-0.226	-0.080
-188.158	309.976	0.054	0.099
-187.144	356.522	-0.055	0.108
-186.129	-37.555	-0.381	0.200
-185.114	-200.000	-0.027	0.286
-184.100	-45.377	0.344	0.168
-183.085	-57.907	-0.012	0.005
-182.071	800.000	0.027	-0.110
-181.056	638.360	-0.085	-0.212
-180.042	-126.169	0.259	0.038
-179.027	364.608	-0.221	0.437
-178.012	72.597	0.168	0.172
-176.998	-47.625	-0.374	-0.178
-175.983	-200.000	-0.059	0.445
-174.969	-121.777	0.224	-0.036
-173.954	-37.528	-0.150	-0.078
-172.939	-190.434	0.118	0.001
-171.925	3.662	0.297	0.213
-170.910	236.311	-0.169	-0.275
-169.896	116.675	0.157	-0.189
-168.881	-57.930	-0.227	0.097
-167.866	-53.903	0.169	-0.076
-166.852	-144.933	-0.072	0.006
-165.837	-50.312	0.152	-0.071
-164.823	94.379	0.052	0.058
-163.808	109.246	-0.043	-0.051
-162.793	-111.265	-0.380	0.076
-161.779	286.826	0.254	-0.450
-160.764	-54.688	0.270	-0.120
-159.750	-46.711	0.294	0.142
-158.735	-98.341	-0.500	-0.126
-157.720	-200.000	0.000	0.011
-156.706	74.456	-0.060	-0.062
-155.691	-73.292	0.089	0.032
-154.677	-200.000	0.000	-0.043
-153.662	-88.455	-0.058	-0.017
-152.647	158.728	-0.130	-0.177
-151.633	-200.000	-0.091	0.408
-150.618	-109.580	0.236	-0.049
-149.604	-72.552	-0.178	0.064
-148.589	16.930	-0.162	-0.126
-147.574	-200.000	0.025	0.161
-146.560	-200.000	0.009	-0.130
-145.545	137.341	0.190	-0.244
-144.531	-200.000	-0.008	0.379
-143.516	-185.993	0.340	0.005
-142.502	-58.295	0.443	0.189
-141.487	-13.760	-0.229	0.146
-140.472	22.648	-0.227	0.182
-139.458	-41.093	-0.125	0.064
-138.443	-9.145	0.070	0.046
-137.429	153.671	-0.113	0.152
-136.414	-133.765	-0.117	0.014
-135.399	437.923	-0.087	0.186
-134.385	-11.302	-0.087	0.056
-133.370	-68.345	0.095	-0.036
-132.356	170.234	-0.177	0.248
-131.341	-76.000	0.379	0.131
-130.326	-163.929	0.144	0.007
-129.312	-5.007	0.136	0.092
-128.297	65.099	0.200	-0.198
-127.283	297.937	-0.211	0.379
-126.268	-99.368	-0.211	-0.052
-125.253	48.647	0.236	0.217
-124.239	-136.185	0.205	-0.024
-123.224	291.101	-0.046	0.081
-122.210	-159.740	0.322	0.017
